##TITLE=Propene, 3-bromo-
##JCAMP-DX=4.24
##DATA TYPE=INFRARED SPECTRUM
##CLASS=COBLENTZ
##ORIGIN=DOW CHEMICAL COMPANY
##OWNER=Copyright (C) 1987 by the Coblentz Society
Collection (C) 2018 copyright by the U.S. Secretary of Commerce
on behalf of the United States of America. All rights reserved.
##DATE=1964
##NAMES=3-bromo-1-propene
ALLYL BROMIDE
##CAS REGISTRY NO=106-95-6
##MOLFORM=C3 H5 Br
##BP=70 C
##SOURCE REFERENCE=COBLENTZ NO. 8819
##$NIST SOURCE=COBLENTZ
##$NIST IMAGE=cob8819
##SPECTROMETER/DATA SYSTEM=DOW KBr FOREPRISM-GRATING
##INSTRUMENT PARAMETERS=GRATING CHANGED AT 5.0, 7.5, 15.0 MICRON
##STATE=GAS (70 mmHg, N2 ADDED, TOTAL PRESSURE 600 mmHg)
##PATH LENGTH=5 CM
##SAMPLING PROCEDURE=TRANSMISSION
##RESOLUTION=2
##DATA PROCESSING=DIGITIZED BY COBLENTZ SOCIETY (BATCH II) FROM HARD COPY
##XUNITS=1/CM
##YUNITS=TRANSMITTANCE
##XFACTOR=1.0
##YFACTOR=1
##FIRSTX=453
##LASTX=3786
##FIRSTY=0.928
##MAXX=3786
##MINX=453
##MAXY=0.9252
##MINY=0.0775
##NPOINTS=3334
##XYDATA=(X++(Y..Y))
453.000000 0.9280 0.9271 0.9262 0.9253 0.9241
458.000000 0.9228 0.9214 0.9201 0.9187 0.9174
463.000000 0.9160 0.9147 0.9131 0.9114 0.9098
468.000000 0.9081 0.9065 0.9048 0.9028 0.9005
473.000000 0.8982 0.8959 0.8936 0.8913 0.8892
478.000000 0.8870 0.8857 0.8852 0.8853 0.8845
483.000000 0.8884 0.8902 0.8921 0.8937 0.8953
488.000000 0.8970 0.8987 0.9003 0.9019 0.9035
493.000000 0.9051 0.9067 0.9079 0.9091 0.9103
498.000000 0.9115 0.9127 0.9138 0.9141 0.9145
503.000000 0.9149 0.9153 0.9145 0.9136 0.9127
508.000000 0.9118 0.9108 0.9090 0.9072 0.9053
513.000000 0.9020 0.8988 0.8955 0.8922 0.8883
518.000000 0.8844 0.8805 0.8766 0.8713 0.8640
523.000000 0.8568 0.8495 0.8416 0.8332 0.8248
528.000000 0.8164 0.8077 0.7990 0.7853 0.7565
533.000000 0.7278 0.6991 0.6703 0.6416 0.6128
538.000000 0.6012 0.5938 0.5904 0.5904 0.5973
543.000000 0.6061 0.6148 0.6235 0.6322 0.6345
548.000000 0.6289 0.6198 0.6106 0.6015 0.5965
553.000000 0.5929 0.6511 0.6846 0.7182 0.7590
558.000000 0.8166 0.8440 0.8558 0.8651 0.8716
563.000000 0.8781 0.8835 0.8887 0.8932 0.8966
568.000000 0.9001 0.9036 0.9057 0.9075 0.9094
573.000000 0.9112 0.9129 0.9135 0.9142 0.9149
578.000000 0.9155 0.9159 0.9157 0.9160 0.9153
583.000000 0.9143 0.9131 0.9119 0.9099 0.9075
588.000000 0.9051 0.9032 0.9015 0.9011 0.9011
593.000000 0.9011 0.9011 0.9013 0.9015 0.9017
598.000000 0.9019 0.9022 0.9008 0.8978 0.8952
603.000000 0.8936 0.8927 0.8927 0.8932 0.8941
608.000000 0.8975 0.9040 0.9090 0.9122 0.9148
613.000000 0.9161 0.9172 0.9177 0.9182 0.9183
618.000000 0.9180 0.9177 0.9174 0.9168 0.9160
623.000000 0.9152 0.9144 0.9137 0.9124 0.9111
628.000000 0.9097 0.9084 0.9067 0.9050 0.9033
633.000000 0.9015 0.8998 0.8978 0.8956 0.8934
638.000000 0.8913 0.8891 0.8870 0.8850 0.8830
643.000000 0.8810 0.8789 0.8769 0.8752 0.8742
648.000000 0.8732 0.8721 0.8711 0.8703 0.8698
653.000000 0.8693 0.8687 0.8674 0.8645 0.8602
658.000000 0.8550 0.8496 0.8439 0.8383 0.8300
663.000000 0.8214 0.8129 0.8064 0.8041 0.8019
668.000000 0.7993 0.7941 0.7784 0.7613 0.6997
673.000000 0.6694 0.6425 0.6156 0.5887 0.5618
678.000000 0.5348 0.5079 0.4580 0.3712 0.3437
683.000000 0.3165 0.2893 0.2620 0.2348 0.2076
688.000000 0.1804 0.1534 0.1547 0.1507 0.1539
693.000000 0.1704 0.1868 0.1976 0.1966 0.1882
698.000000 0.1677 0.1581 0.1563 0.1549 0.1564
703.000000 0.1658 0.1894 0.2130 0.2371 0.2664
708.000000 0.2809 0.3044 0.4247 0.5135 0.5984
713.000000 0.6833 0.7133 0.7178 0.7209 0.7242
718.000000 0.7280 0.7319 0.7365 0.7430 0.7506
723.000000 0.7568 0.7630 0.7682 0.7732 0.7782
728.000000 0.7830 0.7878 0.7925 0.7973 0.8022
733.000000 0.8071 0.8119 0.8165 0.8202 0.8239
738.000000 0.8276 0.8313 0.8349 0.8383 0.8417
743.000000 0.8450 0.8484 0.8515 0.8544 0.8572
748.000000 0.8601 0.8621 0.8640 0.8659 0.8671
753.000000 0.8682 0.8693 0.8703 0.8709 0.8716
758.000000 0.8722 0.8727 0.8733 0.8738 0.8743
763.000000 0.8747 0.8751 0.8755 0.8759 0.8762
768.000000 0.8766 0.8769 0.8770 0.8771 0.8772
773.000000 0.8773 0.8773 0.8776 0.8780 0.8784
778.000000 0.8788 0.8792 0.8807 0.8826 0.8845
783.000000 0.8863 0.8880 0.8897 0.8913 0.8924
788.000000 0.8935 0.8946 0.8957 0.8967 0.8975
793.000000 0.8983 0.8991 0.8999 0.9007 0.9016
798.000000 0.9024 0.9033 0.9041 0.9048 0.9052
803.000000 0.9055 0.9058 0.9062 0.9063 0.9068
808.000000 0.9060 0.9058 0.9055 0.9050 0.9045
813.000000 0.9040 0.9034 0.9029 0.9020 0.9012
818.000000 0.9003 0.8994 0.8986 0.8977 0.8969
823.000000 0.8960 0.8952 0.8944 0.8937 0.8931
828.000000 0.8924 0.8917 0.8910 0.8903 0.8896
833.000000 0.8890 0.8884 0.8879 0.8873 0.8868
838.000000 0.8863 0.8858 0.8854 0.8851 0.8847
843.000000 0.8844 0.8840 0.8836 0.8830 0.8801
848.000000 0.8768 0.8734 0.8691 0.8644 0.8586
853.000000 0.8522 0.8461 0.8400 0.8347 0.8300
858.000000 0.8253 0.8205 0.8150 0.8091 0.8026
863.000000 0.7985 0.7956 0.7943 0.7944 0.8040
868.000000 0.8147 0.8253 0.8237 0.8061 0.7886
873.000000 0.7629 0.7659 0.7767 0.7894 0.8022
878.000000 0.8149 0.8276 0.8355 0.8371 0.8383
883.000000 0.8369 0.8368 0.8352 0.8329 0.8283
888.000000 0.8177 0.8105 0.8031 0.7955 0.7880
893.000000 0.7805 0.7730 0.7630 0.7505 0.7368
898.000000 0.7219 0.7061 0.6926 0.6802 0.6657
903.000000 0.6492 0.6268 0.5830 0.5455 0.5191
908.000000 0.5023 0.4854 0.4595 0.4150 0.3705
913.000000 0.3260 0.2815 0.2370 0.2207 0.1688
918.000000 0.1579 0.1475 0.1397 0.1379 0.1396
923.000000 0.1546 0.1815 0.2084 0.2224 0.2195
928.000000 0.1849 0.1502 0.1156 0.0916 0.0920
933.000000 0.1118 0.1335 0.1552 0.1770 0.1987
938.000000 0.2204 0.2422 0.2639 0.2856 0.3074
943.000000 0.3291 0.3508 0.3726 0.3943 0.4160
948.000000 0.4378 0.4595 0.4812 0.5030 0.5247
953.000000 0.5464 0.5682 0.5929 0.6099 0.6282
958.000000 0.6365 0.6408 0.6429 0.6429 0.6433
963.000000 0.6420 0.6406 0.6386 0.6343 0.6285
968.000000 0.6234 0.6173 0.6108 0.5993 0.5895
973.000000 0.5605 0.5267 0.4982 0.4937 0.4896
978.000000 0.4842 0.4769 0.4711 0.4687 0.4685
983.000000 0.4857 0.5111 0.5366 0.5620 0.5768
988.000000 0.5769 0.5326 0.4890 0.4842 0.4841
993.000000 0.4855 0.5062 0.5218 0.5375 0.5532
998.000000 0.5688 0.5845 0.6049 0.6207 0.6335
1003.000000 0.6585 0.6736 0.6863 0.6988 0.7084
1008.000000 0.7175 0.7245 0.7308 0.7371 0.7438
1013.000000 0.7518 0.7598 0.7684 0.7782 0.7880
1018.000000 0.7970 0.8059 0.8146 0.8205 0.8265
1023.000000 0.8324 0.8384 0.8428 0.8470 0.8511
1028.000000 0.8552 0.8592 0.8629 0.8666 0.8698
1033.000000 0.8725 0.8752 0.8773 0.8787 0.8801
1038.000000 0.8813 0.8824 0.8835 0.8843 0.8850
1043.000000 0.8859 0.8869 0.8878 0.8888 0.8899
1048.000000 0.8893 0.8913 0.8907 0.8901 0.8890
1053.000000 0.8876 0.8854 0.8831 0.8781 0.8735
1058.000000 0.8693 0.8651 0.8608 0.8564 0.8519
1063.000000 0.8480 0.8416 0.8428 0.8431 0.8435
1068.000000 0.8441 0.8448 0.8446 0.8460 0.8420
1073.000000 0.8391 0.8369 0.8356 0.8356 0.8365
1078.000000 0.8379 0.8400 0.8423 0.8449 0.8478
1083.000000 0.8510 0.8543 0.8579 0.8617 0.8653
1088.000000 0.8689 0.8720 0.8748 0.8775 0.8802
1093.000000 0.8828 0.8843 0.8858 0.8873 0.8888
1098.000000 0.8901 0.8913 0.8925 0.8937 0.8950
1103.000000 0.8962 0.8974 0.8987 0.9000 0.9013
1108.000000 0.9025 0.9038 0.9051 0.9057 0.9063
1113.000000 0.9068 0.9074 0.9080 0.9085 0.9091
1118.000000 0.9096 0.9101 0.9106 0.9111 0.9109
1123.000000 0.9107 0.9105 0.9103 0.9101 0.9098
1128.000000 0.9096 0.9124 0.9089 0.9085 0.9082
1133.000000 0.9081 0.9079 0.9078 0.9077 0.9075
1138.000000 0.9074 0.9073 0.9072 0.9083 0.9096
1143.000000 0.9100 0.9093 0.9083 0.9072 0.9061
1148.000000 0.9049 0.9037 0.9024 0.9012 0.8998
1153.000000 0.8985 0.8971 0.8956 0.8941 0.8926
1158.000000 0.8911 0.8895 0.8878 0.8861 0.8844
1163.000000 0.8827 0.8803 0.8780 0.8757 0.8733
1168.000000 0.8710 0.8678 0.8641 0.8603 0.8566
1173.000000 0.8526 0.8480 0.8434 0.8388 0.8343
1178.000000 0.8277 0.8211 0.8144 0.8077 0.7995
1183.000000 0.7910 0.7825 0.7745 0.7666 0.7587
1188.000000 0.7502 0.7400 0.7296 0.7184 0.7073
1193.000000 0.6965 0.6857 0.6703 0.6346 0.5985
1198.000000 0.5625 0.5265 0.4904 0.4544 0.3260
1203.000000 0.1704 0.0984 0.0907 0.0894 0.0890
1208.000000 0.0892 0.0851 0.1017 0.1157 0.1271
1213.000000 0.1764 0.2196 0.2218 0.1998 0.1744
1218.000000 0.1490 0.1236 0.0982 0.0798 0.0775
1223.000000 0.2331 0.2551 0.3126 0.3702 0.4277
1228.000000 0.4852 0.5428 0.6003 0.6578 0.7086
1233.000000 0.7225 0.7320 0.7386 0.7436 0.7511
1238.000000 0.7555 0.7572 0.7589 0.7600 0.7611
1243.000000 0.7621 0.7642 0.7681 0.7728 0.7780
1248.000000 0.7824 0.7865 0.7906 0.7943 0.7975
1253.000000 0.8006 0.8029 0.8024 0.8020 0.8015
1258.000000 0.8021 0.8031 0.8082 0.8164 0.8246
1263.000000 0.8328 0.8416 0.8482 0.8542 0.8600
1268.000000 0.8640 0.8680 0.8713 0.8737 0.8752
1273.000000 0.8758 0.8763 0.8766 0.8768 0.8762
1278.000000 0.8770 0.8767 0.8762 0.8753 0.8740
1283.000000 0.8728 0.8715 0.8701 0.8687 0.8673
1288.000000 0.8658 0.8644 0.8631 0.8618 0.8604
1293.000000 0.8591 0.8578 0.8565 0.8553 0.8540
1298.000000 0.8531 0.8523 0.8514 0.8507 0.8503
1303.000000 0.8514 0.8520 0.8527 0.8539 0.8551
1308.000000 0.8566 0.8584 0.8602 0.8620 0.8640
1313.000000 0.8659 0.8679 0.8696 0.8714 0.8731
1318.000000 0.8748 0.8765 0.8780 0.8794 0.8808
1323.000000 0.8822 0.8834 0.8845 0.8857 0.8869
1328.000000 0.8880 0.8892 0.8904 0.8916 0.8928
1333.000000 0.8940 0.8950 0.8958 0.8967 0.8975
1338.000000 0.8984 0.8987 0.8987 0.8983 0.8976
1343.000000 0.8969 0.8961 0.8964 0.8967 0.8974
1348.000000 0.8986 0.8997 0.9012 0.9028 0.9044
1353.000000 0.9060 0.9070 0.9078 0.9076 0.9075
1358.000000 0.9071 0.9068 0.9055 0.9033 0.9010
1363.000000 0.8988 0.8963 0.8939 0.8914 0.8886
1368.000000 0.8856 0.8827 0.8801 0.8776 0.8751
1373.000000 0.8726 0.8700 0.8672 0.8645 0.8617
1378.000000 0.8590 0.8561 0.8532 0.8503 0.8474
1383.000000 0.8444 0.8411 0.8376 0.8341 0.8306
1388.000000 0.8271 0.8228 0.8186 0.8143 0.8100
1393.000000 0.8058 0.7998 0.7935 0.7868 0.7782
1398.000000 0.7695 0.7614 0.7534 0.7411 0.7284
1403.000000 0.7132 0.6917 0.6739 0.6600 0.6427
1408.000000 0.6300 0.6268 0.6273 0.6280 0.6315
1413.000000 0.6331 0.6332 0.6302 0.6229 0.6110
1418.000000 0.6157 0.6309 0.6462 0.6414 0.6305
1423.000000 0.6195 0.6086 0.6092 0.6251 0.6405
1428.000000 0.6541 0.6675 0.6971 0.7115 0.7280
1433.000000 0.7323 0.7364 0.7341 0.7343 0.7344
1438.000000 0.7337 0.7317 0.7255 0.7198 0.7151
1443.000000 0.7117 0.7092 0.7076 0.7065 0.7053
1448.000000 0.6965 0.6877 0.6789 0.6701 0.6696
1453.000000 0.6687 0.7144 0.7167 0.7190 0.7213
1458.000000 0.7382 0.7466 0.7474 0.7482 0.7488
1463.000000 0.7497 0.7726 0.7759 0.7786 0.7811
1468.000000 0.7835 0.7858 0.7879 0.7909 0.7959
1473.000000 0.8217 0.8253 0.8276 0.8291 0.8303
1478.000000 0.8318 0.8345 0.8389 0.8433 0.8477
1483.000000 0.8521 0.8564 0.8608 0.8642 0.8673
1488.000000 0.8704 0.8735 0.8766 0.8787 0.8804
1493.000000 0.8822 0.8840 0.8857 0.8873 0.8883
1498.000000 0.8891 0.8899 0.8905 0.8911 0.8933
1503.000000 0.9022 0.9075 0.9080 0.9080 0.9064
1508.000000 0.9049 0.9005 0.8950 0.8920 0.8901
1513.000000 0.8889 0.8877 0.8865 0.8853 0.8845
1518.000000 0.8838 0.8831 0.8820 0.8807 0.8795
1523.000000 0.8783 0.8771 0.8758 0.8750 0.8741
1528.000000 0.8732 0.8723 0.8715 0.8707 0.8702
1533.000000 0.8675 0.8698 0.8707 0.8715 0.8746
1538.000000 0.8789 0.8868 0.9015 0.8969 0.8964
1543.000000 0.8955 0.8943 0.8931 0.8922 0.8917
1548.000000 0.8913 0.8889 0.8912 0.8916 0.8920
1553.000000 0.8927 0.8935 0.8951 0.8992 0.9111
1558.000000 0.9222 0.9252 0.9181 0.9110 0.9038
1563.000000 0.8968 0.8969 0.8975 0.8982 0.8992
1568.000000 0.9005 0.9024 0.9044 0.9065 0.9083
1573.000000 0.9080 0.9071 0.9053 0.9010 0.8970
1578.000000 0.8962 0.8960 0.8958 0.8957 0.8956
1583.000000 0.8955 0.8951 0.8946 0.8941 0.8936
1588.000000 0.8931 0.8926 0.8920 0.8914 0.8909
1593.000000 0.8903 0.8895 0.8886 0.8877 0.8868
1598.000000 0.8858 0.8844 0.8830 0.8815 0.8800
1603.000000 0.8785 0.8767 0.8748 0.8728 0.8708
1608.000000 0.8690 0.8672 0.8654 0.8644 0.8646
1613.000000 0.8650 0.8654 0.8657 0.8640 0.8605
1618.000000 0.8562 0.8525 0.8512 0.8502 0.8461
1623.000000 0.8393 0.8323 0.8256 0.8188 0.8120
1628.000000 0.8028 0.7936 0.7841 0.7756 0.7681
1633.000000 0.7611 0.7595 0.7572 0.7445 0.7349
1638.000000 0.7268 0.7211 0.7165 0.7129 0.7086
1643.000000 0.7034 0.7048 0.7111 0.7174 0.7182
1648.000000 0.7118 0.7027 0.6936 0.6940 0.6934
1653.000000 0.7540 0.7803 0.7829 0.7849 0.7865
1658.000000 0.7881 0.7904 0.7936 0.7985 0.8057
1663.000000 0.8149 0.8269 0.8418 0.8505 0.8576
1668.000000 0.8593 0.8608 0.8616 0.8622 0.8626
1673.000000 0.8629 0.8631 0.8634 0.8637 0.8640
1678.000000 0.8653 0.8671 0.8710 0.8749 0.8803
1683.000000 0.8824 0.8800 0.8775 0.8750 0.8725
1688.000000 0.8715 0.8716 0.8716 0.8721 0.8732
1693.000000 0.8764 0.8795 0.8829 0.8866 0.8906
1698.000000 0.8949 0.8998 0.8993 0.8971 0.8948
1703.000000 0.8922 0.8896 0.8872 0.8863 0.8859
1708.000000 0.8864 0.8872 0.8895 0.8927 0.9026
1713.000000 0.9045 0.9047 0.9033 0.9017 0.8996
1718.000000 0.8974 0.8952 0.8935 0.8920 0.8910
1723.000000 0.8911 0.8913 0.8918 0.8925 0.8931
1728.000000 0.8938 0.8951 0.8973 0.9004 0.9036
1733.000000 0.9042 0.8965 0.8992 0.8968 0.8955
1738.000000 0.8945 0.8936 0.8932 0.8929 0.8926
1743.000000 0.8923 0.8921 0.8918 0.8916 0.8913
1748.000000 0.8910 0.8907 0.8904 0.8900 0.8897
1753.000000 0.8894 0.8892 0.8891 0.8889 0.8887
1758.000000 0.8886 0.8884 0.8886 0.8889 0.8892
1763.000000 0.8896 0.8899 0.8902 0.8906 0.8912
1768.000000 0.8917 0.8923 0.8925 0.8927 0.8924
1773.000000 0.8912 0.8901 0.8890 0.8878 0.8867
1778.000000 0.8859 0.8851 0.8845 0.8838 0.8834
1783.000000 0.8830 0.8826 0.8822 0.8818 0.8814
1788.000000 0.8811 0.8808 0.8804 0.8801 0.8799
1793.000000 0.8799 0.8798 0.8798 0.8798 0.8797
1798.000000 0.8797 0.8796 0.8794 0.8792 0.8791
1803.000000 0.8789 0.8787 0.8785 0.8783 0.8782
1808.000000 0.8780 0.8779 0.8777 0.8776 0.8773
1813.000000 0.8769 0.8765 0.8762 0.8758 0.8754
1818.000000 0.8750 0.8746 0.8742 0.8738 0.8735
1823.000000 0.8731 0.8727 0.8723 0.8708 0.8693
1828.000000 0.8677 0.8655 0.8628 0.8597 0.8554
1833.000000 0.8501 0.8440 0.8346 0.8238 0.8122
1838.000000 0.8007 0.7891 0.7766 0.7623 0.7472
1843.000000 0.7383 0.7284 0.7238 0.7216 0.7220
1848.000000 0.7242 0.7275 0.7308 0.7342 0.7375
1853.000000 0.7395 0.7171 0.7065 0.7026 0.7007
1858.000000 0.6998 0.6998 0.6994 0.7177 0.7521
1863.000000 0.7775 0.8003 0.8061 0.8111 0.8152
1868.000000 0.8194 0.8230 0.8257 0.8284 0.8311
1873.000000 0.8340 0.8370 0.8400 0.8430 0.8455
1878.000000 0.8478 0.8500 0.8523 0.8545 0.8560
1883.000000 0.8576 0.8591 0.8606 0.8622 0.8637
1888.000000 0.8648 0.8656 0.8664 0.8672 0.8680
1893.000000 0.8688 0.8696 0.8704 0.8712 0.8720
1898.000000 0.8728 0.8735 0.8742 0.8749 0.8757
1903.000000 0.8764 0.8771 0.8779 0.8782 0.8783
1908.000000 0.8785 0.8787 0.8789 0.8790 0.8792
1913.000000 0.8793 0.8792 0.8792 0.8791 0.8791
1918.000000 0.8790 0.8789 0.8786 0.8783 0.8780
1923.000000 0.8777 0.8774 0.8771 0.8768 0.8762
1928.000000 0.8756 0.8751 0.8745 0.8739 0.8733
1933.000000 0.8725 0.8718 0.8710 0.8702 0.8694
1938.000000 0.8687 0.8680 0.8674 0.8667 0.8660
1943.000000 0.8654 0.8647 0.8640 0.8634 0.8627
1948.000000 0.8620 0.8617 0.8614 0.8611 0.8609
1953.000000 0.8606 0.8603 0.8600 0.8599 0.8600
1958.000000 0.8602 0.8603 0.8605 0.8606 0.8611
1963.000000 0.8618 0.8626 0.8633 0.8642 0.8651
1968.000000 0.8660 0.8667 0.8673 0.8680 0.8686
1973.000000 0.8692 0.8698 0.8705 0.8711 0.8717
1978.000000 0.8723 0.8728 0.8733 0.8739 0.8744
1983.000000 0.8749 0.8754 0.8759 0.8765 0.8769
1988.000000 0.8773 0.8777 0.8781 0.8785 0.8789
1993.000000 0.8794 0.8798 0.8801 0.8802 0.8803
1998.000000 0.8804 0.8805 0.8804 0.8803 0.8802
2003.000000 0.8801 0.8801 0.8801 0.8801 0.8800
2008.000000 0.8800 0.8799 0.8799 0.8798 0.8798
2013.000000 0.8797 0.8797 0.8797 0.8797 0.8796
2018.000000 0.8796 0.8795 0.8795 0.8794 0.8794
2023.000000 0.8793 0.8793 0.8792 0.8792 0.8792
2028.000000 0.8792 0.8791 0.8791 0.8790 0.8790
2033.000000 0.8789 0.8789 0.8788 0.8788 0.8787
2038.000000 0.8787 0.8786 0.8785 0.8784 0.8783
2043.000000 0.8782 0.8781 0.8780 0.8780 0.8779
2048.000000 0.8778 0.8777 0.8776 0.8775 0.8774
2053.000000 0.8773 0.8773 0.8772 0.8771 0.8771
2058.000000 0.8771 0.8771 0.8771 0.8771 0.8771
2063.000000 0.8771 0.8771 0.8771 0.8771 0.8771
2068.000000 0.8771 0.8771 0.8772 0.8772 0.8772
2073.000000 0.8772 0.8772 0.8773 0.8774 0.8774
2078.000000 0.8775 0.8776 0.8777 0.8777 0.8778
2083.000000 0.8779 0.8780 0.8781 0.8782 0.8783
2088.000000 0.8784 0.8785 0.8786 0.8787 0.8788
2093.000000 0.8789 0.8790 0.8791 0.8792 0.8793
2098.000000 0.8794 0.8795 0.8796 0.8797 0.8798
2103.000000 0.8799 0.8800 0.8801 0.8802 0.8803
2108.000000 0.8804 0.8804 0.8805 0.8805 0.8806
2113.000000 0.8806 0.8806 0.8806 0.8807 0.8807
2118.000000 0.8808 0.8808 0.8808 0.8808 0.8809
2123.000000 0.8809 0.8809 0.8809 0.8810 0.8810
2128.000000 0.8810 0.8809 0.8808 0.8806 0.8805
2133.000000 0.8803 0.8801 0.8799 0.8798 0.8796
2138.000000 0.8795 0.8793 0.8792 0.8790 0.8788
2143.000000 0.8786 0.8785 0.8783 0.8782 0.8780
2148.000000 0.8778 0.8777 0.8776 0.8775 0.8775
2153.000000 0.8774 0.8774 0.8773 0.8773 0.8772
2158.000000 0.8771 0.8770 0.8770 0.8769 0.8769
2163.000000 0.8768 0.8768 0.8767 0.8767 0.8767
2168.000000 0.8768 0.8769 0.8770 0.8770 0.8771
2173.000000 0.8771 0.8772 0.8773 0.8774 0.8774
2178.000000 0.8775 0.8776 0.8777 0.8777 0.8778
2183.000000 0.8778 0.8779 0.8781 0.8784 0.8786
2188.000000 0.8789 0.8792 0.8795 0.8797 0.8800
2193.000000 0.8802 0.8805 0.8807 0.8809 0.8811
2198.000000 0.8813 0.8814 0.8816 0.8818 0.8820
2203.000000 0.8821 0.8823 0.8824 0.8826 0.8827
2208.000000 0.8829 0.8829 0.8830 0.8831 0.8832
2213.000000 0.8833 0.8834 0.8834 0.8835 0.8836
2218.000000 0.8837 0.8838 0.8839 0.8839 0.8840
2223.000000 0.8840 0.8840 0.8840 0.8840 0.8839
2228.000000 0.8839 0.8839 0.8839 0.8839 0.8839
2233.000000 0.8839 0.8839 0.8839 0.8839 0.8838
2238.000000 0.8838 0.8838 0.8838 0.8838 0.8838
2243.000000 0.8838 0.8838 0.8838 0.8838 0.8837
2248.000000 0.8836 0.8835 0.8835 0.8834 0.8834
2253.000000 0.8833 0.8832 0.8831 0.8831 0.8830
2258.000000 0.8830 0.8829 0.8828 0.8827 0.8827
2263.000000 0.8827 0.8827 0.8827 0.8828 0.8828
2268.000000 0.8828 0.8828 0.8828 0.8828 0.8828
2273.000000 0.8828 0.8828 0.8828 0.8828 0.8828
2278.000000 0.8828 0.8828 0.8829 0.8830 0.8832
2283.000000 0.8834 0.8836 0.8838 0.8840 0.8845
2288.000000 0.8851 0.8856 0.8862 0.8867 0.8873
2293.000000 0.8876 0.8879 0.8882 0.8886 0.8889
2298.000000 0.8893 0.8896 0.8899 0.8902 0.8906
2303.000000 0.8909 0.8913 0.8916 0.8919 0.8922
2308.000000 0.8926 0.8929 0.8933 0.8937 0.8941
2313.000000 0.8946 0.8951 0.8955 0.8960 0.8965
2318.000000 0.8970 0.8974 0.8979 0.8984 0.8989
2323.000000 0.8993 0.8998 0.9003 0.9008 0.9012
2328.000000 0.9017 0.9017 0.9018 0.9018 0.9019
2333.000000 0.9019 0.9020 0.9020 0.9021 0.9021
2338.000000 0.9022 0.9022 0.9023 0.9024 0.9025
2343.000000 0.9025 0.9026 0.9029 0.9033 0.9039
2348.000000 0.9045 0.9051 0.9057 0.9061 0.9066
2353.000000 0.9066 0.9066 0.9057 0.9049 0.9040
2358.000000 0.9031 0.9021 0.9011 0.8998 0.8986
2363.000000 0.8973 0.8961 0.8948 0.8935 0.8922
2368.000000 0.8909 0.8896 0.8883 0.8871 0.8859
2373.000000 0.8848 0.8838 0.8827 0.8816 0.8808
2378.000000 0.8800 0.8795 0.8790 0.8785 0.8780
2383.000000 0.8775 0.8771 0.8766 0.8761 0.8757
2388.000000 0.8754 0.8752 0.8750 0.8748 0.8746
2393.000000 0.8744 0.8742 0.8740 0.8739 0.8737
2398.000000 0.8735 0.8733 0.8731 0.8730 0.8729
2403.000000 0.8729 0.8729 0.8729 0.8729 0.8729
2408.000000 0.8729 0.8729 0.8730 0.8730 0.8731
2413.000000 0.8734 0.8737 0.8740 0.8743 0.8745
2418.000000 0.8748 0.8751 0.8755 0.8760 0.8766
2423.000000 0.8771 0.8777 0.8782 0.8788 0.8793
2428.000000 0.8799 0.8804 0.8810 0.8815 0.8821
2433.000000 0.8826 0.8831 0.8836 0.8841 0.8846
2438.000000 0.8852 0.8855 0.8858 0.8860 0.8862
2443.000000 0.8863 0.8865 0.8867 0.8869 0.8871
2448.000000 0.8873 0.8875 0.8877 0.8877 0.8878
2453.000000 0.8876 0.8875 0.8873 0.8872 0.8870
2458.000000 0.8869 0.8867 0.8866 0.8864 0.8863
2463.000000 0.8861 0.8860 0.8859 0.8858 0.8856
2468.000000 0.8855 0.8854 0.8853 0.8852 0.8852
2473.000000 0.8852 0.8852 0.8851 0.8851 0.8851
2478.000000 0.8851 0.8850 0.8850 0.8851 0.8852
2483.000000 0.8853 0.8854 0.8855 0.8856 0.8857
2488.000000 0.8858 0.8859 0.8861 0.8862 0.8863
2493.000000 0.8864 0.8865 0.8866 0.8867 0.8868
2498.000000 0.8869 0.8870 0.8871 0.8872 0.8873
2503.000000 0.8874 0.8875 0.8876 0.8877 0.8878
2508.000000 0.8879 0.8880 0.8881 0.8882 0.8883
2513.000000 0.8884 0.8885 0.8886 0.8887 0.8888
2518.000000 0.8889 0.8890 0.8891 0.8892 0.8893
2523.000000 0.8894 0.8895 0.8896 0.8898 0.8899
2528.000000 0.8900 0.8901 0.8903 0.8904 0.8905
2533.000000 0.8906 0.8908 0.8909 0.8910 0.8911
2538.000000 0.8912 0.8912 0.8912 0.8912 0.8912
2543.000000 0.8912 0.8913 0.8913 0.8913 0.8913
2548.000000 0.8913 0.8913 0.8913 0.8913 0.8913
2553.000000 0.8913 0.8913 0.8913 0.8913 0.8913
2558.000000 0.8914 0.8914 0.8914 0.8914 0.8914
2563.000000 0.8914 0.8914 0.8914 0.8914 0.8914
2568.000000 0.8914 0.8913 0.8912 0.8910 0.8909
2573.000000 0.8908 0.8907 0.8906 0.8905 0.8904
2578.000000 0.8903 0.8902 0.8901 0.8900 0.8899
2583.000000 0.8898 0.8897 0.8895 0.8894 0.8893
2588.000000 0.8892 0.8891 0.8890 0.8889 0.8888
2593.000000 0.8887 0.8886 0.8885 0.8884 0.8882
2598.000000 0.8881 0.8879 0.8877 0.8874 0.8872
2603.000000 0.8869 0.8867 0.8864 0.8862 0.8860
2608.000000 0.8858 0.8855 0.8853 0.8850 0.8848
2613.000000 0.8846 0.8844 0.8841 0.8839 0.8836
2618.000000 0.8834 0.8831 0.8829 0.8827 0.8825
2623.000000 0.8822 0.8820 0.8817 0.8815 0.8812
2628.000000 0.8809 0.8806 0.8803 0.8800 0.8798
2633.000000 0.8795 0.8792 0.8789 0.8787 0.8784
2638.000000 0.8781 0.8777 0.8774 0.8769 0.8764
2643.000000 0.8758 0.8753 0.8748 0.8743 0.8739
2648.000000 0.8736 0.8733 0.8731 0.8733 0.8735
2653.000000 0.8737 0.8739 0.8741 0.8744 0.8746
2658.000000 0.8748 0.8750 0.8753 0.8756 0.8759
2663.000000 0.8763 0.8767 0.8770 0.8774 0.8778
2668.000000 0.8783 0.8787 0.8792 0.8797 0.8802
2673.000000 0.8806 0.8811 0.8815 0.8820 0.8824
2678.000000 0.8828 0.8831 0.8834 0.8837 0.8840
2683.000000 0.8843 0.8846 0.8848 0.8850 0.8851
2688.000000 0.8853 0.8854 0.8855 0.8856 0.8857
2693.000000 0.8857 0.8857 0.8857 0.8857 0.8857
2698.000000 0.8858 0.8858 0.8858 0.8857 0.8857
2703.000000 0.8857 0.8857 0.8856 0.8856 0.8855
2708.000000 0.8855 0.8854 0.8854 0.8853 0.8853
2713.000000 0.8852 0.8852 0.8851 0.8851 0.8850
2718.000000 0.8850 0.8849 0.8849 0.8848 0.8848
2723.000000 0.8847 0.8847 0.8846 0.8846 0.8845
2728.000000 0.8845 0.8844 0.8844 0.8844 0.8845
2733.000000 0.8845 0.8845 0.8845 0.8845 0.8845
2738.000000 0.8845 0.8845 0.8845 0.8845 0.8845
2743.000000 0.8845 0.8845 0.8846 0.8847 0.8848
2748.000000 0.8849 0.8850 0.8851 0.8852 0.8853
2753.000000 0.8854 0.8855 0.8856 0.8857 0.8858
2758.000000 0.8859 0.8860 0.8861 0.8862 0.8863
2763.000000 0.8864 0.8865 0.8866 0.8867 0.8868
2768.000000 0.8869 0.8869 0.8870 0.8868 0.8867
2773.000000 0.8865 0.8864 0.8863 0.8862 0.8860
2778.000000 0.8859 0.8857 0.8856 0.8855 0.8854
2783.000000 0.8852 0.8851 0.8849 0.8848 0.8847
2788.000000 0.8846 0.8844 0.8843 0.8841 0.8840
2793.000000 0.8839 0.8838 0.8834 0.8831 0.8827
2798.000000 0.8823 0.8819 0.8816 0.8812 0.8808
2803.000000 0.8804 0.8800 0.8796 0.8793 0.8789
2808.000000 0.8785 0.8781 0.8778 0.8774 0.8770
2813.000000 0.8766 0.8763 0.8759 0.8755 0.8750
2818.000000 0.8746 0.8741 0.8737 0.8732 0.8728
2823.000000 0.8723 0.8719 0.8714 0.8710 0.8705
2828.000000 0.8700 0.8695 0.8691 0.8686 0.8682
2833.000000 0.8677 0.8673 0.8668 0.8664 0.8658
2838.000000 0.8653 0.8647 0.8642 0.8636 0.8631
2843.000000 0.8625 0.8620 0.8614 0.8609 0.8603
2848.000000 0.8598 0.8592 0.8587 0.8581 0.8576
2853.000000 0.8570 0.8565 0.8560 0.8555 0.8549
2858.000000 0.8544 0.8538 0.8533 0.8527 0.8522
2863.000000 0.8516 0.8511 0.8505 0.8500 0.8494
2868.000000 0.8489 0.8483 0.8478 0.8472 0.8467
2873.000000 0.8462 0.8457 0.8460 0.8463 0.8466
2878.000000 0.8469 0.8472 0.8475 0.8477 0.8480
2883.000000 0.8487 0.8494 0.8509 0.8524 0.8539
2888.000000 0.8554 0.8569 0.8585 0.8604 0.8624
2893.000000 0.8649 0.8674 0.8696 0.8718 0.8733
2898.000000 0.8748 0.8763 0.8778 0.8783 0.8788
2903.000000 0.8791 0.8794 0.8797 0.8800 0.8800
2908.000000 0.8801 0.8799 0.8797 0.8795 0.8793
2913.000000 0.8786 0.8779 0.8769 0.8759 0.8744
2918.000000 0.8730 0.8712 0.8695 0.8672 0.8649
2923.000000 0.8622 0.8596 0.8566 0.8536 0.8503
2928.000000 0.8470 0.8430 0.8390 0.8344 0.8299
2933.000000 0.8253 0.8208 0.8165 0.8122 0.8068
2938.000000 0.8014 0.7938 0.7863 0.7787 0.7712
2943.000000 0.7636 0.7561 0.7485 0.7410 0.7335
2948.000000 0.7260 0.7184 0.7109 0.7033 0.6958
2953.000000 0.6882 0.6807 0.6731 0.6656 0.6581
2958.000000 0.6506 0.6430 0.6355 0.6293 0.6232
2963.000000 0.6181 0.6130 0.6081 0.6033 0.5982
2968.000000 0.5932 0.5867 0.5803 0.5735 0.5667
2973.000000 0.5558 0.5450 0.5396 0.5343 0.5337
2978.000000 0.5331 0.5332 0.5314 0.5358 0.5383
2983.000000 0.5431 0.5479 0.5526 0.5574 0.5622
2988.000000 0.5670 0.5717 0.5765 0.5813 0.5861
2993.000000 0.5908 0.5956 0.6004 0.6052 0.6100
2998.000000 0.6148 0.6195 0.6243 0.6284 0.6325
3003.000000 0.6372 0.6419 0.6477 0.6536 0.6561
3008.000000 0.6586 0.6597 0.6608 0.6614 0.6620
3013.000000 0.6625 0.6630 0.6650 0.6671 0.6712
3018.000000 0.6753 0.6801 0.6850 0.6905 0.6961
3023.000000 0.7023 0.7085 0.7158 0.7232 0.7310
3028.000000 0.7388 0.7443 0.7498 0.7544 0.7591
3033.000000 0.7628 0.7665 0.7680 0.7695 0.7706
3038.000000 0.7717 0.7718 0.7781 0.7716 0.7713
3043.000000 0.7706 0.7699 0.7685 0.7671 0.7644
3048.000000 0.7618 0.7582 0.7547 0.7515 0.7484
3053.000000 0.7453 0.7423 0.7391 0.7360 0.7328
3058.000000 0.7297 0.7261 0.7226 0.7186 0.7147
3063.000000 0.7106 0.7066 0.7017 0.6969 0.6920
3068.000000 0.6872 0.6815 0.6758 0.6696 0.6634
3073.000000 0.6579 0.6525 0.6472 0.6419 0.6353
3078.000000 0.6287 0.6195 0.6103 0.5963 0.5824
3083.000000 0.5684 0.5545 0.5405 0.5266 0.5194
3088.000000 0.5122 0.5114 0.5107 0.5107 0.5137
3093.000000 0.5111 0.5114 0.5119 0.5124 0.5134
3098.000000 0.5144 0.5159 0.5175 0.5273 0.5371
3103.000000 0.5518 0.5665 0.5812 0.5959 0.6106
3108.000000 0.6253 0.6400 0.6547 0.6694 0.6841
3113.000000 0.6988 0.7135 0.7282 0.7429 0.7576
3118.000000 0.7723 0.7868 0.8013 0.8060 0.8108
3123.000000 0.8143 0.8179 0.8215 0.8251 0.8320
3128.000000 0.8390 0.8425 0.8461 0.8483 0.8505
3133.000000 0.8521 0.8537 0.8547 0.8558 0.8567
3138.000000 0.8577 0.8585 0.8594 0.8602 0.8610
3143.000000 0.8618 0.8626 0.8631 0.8636 0.8641
3148.000000 0.8646 0.8650 0.8655 0.8660 0.8665
3153.000000 0.8668 0.8672 0.8675 0.8678 0.8681
3158.000000 0.8684 0.8686 0.8689 0.8692 0.8695
3163.000000 0.8698 0.8701 0.8702 0.8703 0.8704
3168.000000 0.8705 0.8706 0.8707 0.8708 0.8709
3173.000000 0.8710 0.8711 0.8711 0.8712 0.8713
3178.000000 0.8714 0.8715 0.8716 0.8716 0.8717
3183.000000 0.8718 0.8719 0.8719 0.8720 0.8721
3188.000000 0.8722 0.8723 0.8724 0.8724 0.8725
3193.000000 0.8725 0.8726 0.8726 0.8726 0.8726
3198.000000 0.8726 0.8726 0.8727 0.8727 0.8727
3203.000000 0.8727 0.8727 0.8727 0.8727 0.8727
3208.000000 0.8727 0.8727 0.8727 0.8727 0.8727
3213.000000 0.8727 0.8728 0.8728 0.8728 0.8727
3218.000000 0.8727 0.8726 0.8726 0.8726 0.8726
3223.000000 0.8725 0.8725 0.8725 0.8725 0.8724
3228.000000 0.8724 0.8723 0.8723 0.8723 0.8723
3233.000000 0.8722 0.8722 0.8721 0.8721 0.8721
3238.000000 0.8721 0.8720 0.8720 0.8719 0.8719
3243.000000 0.8719 0.8719 0.8718 0.8718 0.8717
3248.000000 0.8716 0.8715 0.8714 0.8712 0.8711
3253.000000 0.8710 0.8709 0.8708 0.8707 0.8706
3258.000000 0.8705 0.8703 0.8702 0.8701 0.8700
3263.000000 0.8699 0.8698 0.8697 0.8696 0.8694
3268.000000 0.8693 0.8692 0.8691 0.8690 0.8689
3273.000000 0.8688 0.8687 0.8686 0.8685 0.8683
3278.000000 0.8682 0.8681 0.8680 0.8678 0.8677
3283.000000 0.8675 0.8674 0.8672 0.8671 0.8669
3288.000000 0.8668 0.8667 0.8666 0.8664 0.8663
3293.000000 0.8661 0.8660 0.8658 0.8657 0.8655
3298.000000 0.8654 0.8653 0.8652 0.8650 0.8649
3303.000000 0.8647 0.8646 0.8644 0.8643 0.8641
3308.000000 0.8640 0.8639 0.8638 0.8636 0.8635
3313.000000 0.8633 0.8632 0.8631 0.8630 0.8628
3318.000000 0.8627 0.8625 0.8624 0.8622 0.8621
3323.000000 0.8620 0.8619 0.8617 0.8616 0.8614
3328.000000 0.8613 0.8612 0.8611 0.8609 0.8608
3333.000000 0.8606 0.8605 0.8603 0.8602 0.8601
3338.000000 0.8600 0.8598 0.8597 0.8595 0.8594
3343.000000 0.8592 0.8591 0.8590 0.8589 0.8587
3348.000000 0.8586 0.8584 0.8583 0.8581 0.8580
3353.000000 0.8578 0.8577 0.8575 0.8574 0.8572
3358.000000 0.8571 0.8569 0.8568 0.8567 0.8566
3363.000000 0.8564 0.8563 0.8561 0.8560 0.8558
3368.000000 0.8557 0.8555 0.8554 0.8553 0.8552
3373.000000 0.8550 0.8549 0.8548 0.8547 0.8546
3378.000000 0.8545 0.8544 0.8543 0.8541 0.8540
3383.000000 0.8539 0.8538 0.8537 0.8536 0.8535
3388.000000 0.8534 0.8532 0.8531 0.8530 0.8529
3393.000000 0.8528 0.8527 0.8526 0.8525 0.8525
3398.000000 0.8526 0.8527 0.8529 0.8530 0.8531
3403.000000 0.8532 0.8534 0.8535 0.8536 0.8538
3408.000000 0.8541 0.8543 0.8545 0.8547 0.8550
3413.000000 0.8552 0.8554 0.8556 0.8559 0.8561
3418.000000 0.8563 0.8565 0.8568 0.8570 0.8572
3423.000000 0.8574 0.8577 0.8579 0.8581 0.8583
3428.000000 0.8586 0.8588 0.8590 0.8592 0.8595
3433.000000 0.8597 0.8599 0.8601 0.8604 0.8606
3438.000000 0.8608 0.8610 0.8612 0.8614 0.8617
3443.000000 0.8619 0.8621 0.8623 0.8625 0.8627
3448.000000 0.8629 0.8631 0.8633 0.8635 0.8637
3453.000000 0.8639 0.8641 0.8643 0.8645 0.8647
3458.000000 0.8650 0.8651 0.8653 0.8654 0.8656
3463.000000 0.8657 0.8659 0.8660 0.8662 0.8663
3468.000000 0.8665 0.8666 0.8668 0.8669 0.8671
3473.000000 0.8672 0.8674 0.8675 0.8676 0.8677
3478.000000 0.8679 0.8680 0.8682 0.8683 0.8685
3483.000000 0.8686 0.8688 0.8689 0.8691 0.8692
3488.000000 0.8694 0.8695 0.8697 0.8698 0.8700
3493.000000 0.8701 0.8703 0.8704 0.8705 0.8706
3498.000000 0.8708 0.8709 0.8711 0.8712 0.8714
3503.000000 0.8715 0.8717 0.8718 0.8720 0.8721
3508.000000 0.8723 0.8724 0.8726 0.8727 0.8729
3513.000000 0.8730 0.8731 0.8732 0.8734 0.8735
3518.000000 0.8737 0.8738 0.8740 0.8740 0.8741
3523.000000 0.8741 0.8741 0.8740 0.8740 0.8740
3528.000000 0.8740 0.8740 0.8740 0.8739 0.8739
3533.000000 0.8739 0.8739 0.8739 0.8739 0.8739
3538.000000 0.8739 0.8738 0.8738 0.8737 0.8737
3543.000000 0.8736 0.8735 0.8734 0.8734 0.8733
3548.000000 0.8733 0.8732 0.8759 0.8733 0.8734
3553.000000 0.8735 0.8736 0.8737 0.8738 0.8739
3558.000000 0.8741 0.8742 0.8743 0.8745 0.8748
3563.000000 0.8750 0.8753 0.8755 0.8758 0.8761
3568.000000 0.8764 0.8766 0.8769 0.8770 0.8771
3573.000000 0.8769 0.8768 0.8767 0.8766 0.8764
3578.000000 0.8763 0.8762 0.8761 0.8759 0.8758
3583.000000 0.8757 0.8756 0.8755 0.8754 0.8755
3588.000000 0.8756 0.8757 0.8759 0.8760 0.8761
3593.000000 0.8762 0.8764 0.8764 0.8765 0.8764
3598.000000 0.8763 0.8762 0.8762 0.8761 0.8760
3603.000000 0.8758 0.8757 0.8754 0.8751 0.8748
3608.000000 0.8745 0.8742 0.8740 0.8740 0.8741
3613.000000 0.8741 0.8742 0.8742 0.8743 0.8747
3618.000000 0.8751 0.8759 0.8768 0.8776 0.8785
3623.000000 0.8790 0.8795 0.8796 0.8797 0.8798
3628.000000 0.8799 0.8792 0.8785 0.8777 0.8770
3633.000000 0.8762 0.8754 0.8746 0.8738 0.8730
3638.000000 0.8722 0.8721 0.8720 0.8722 0.8724
3643.000000 0.8735 0.8746 0.8753 0.8760 0.8763
3648.000000 0.8767 0.8770 0.8773 0.8775 0.8777
3653.000000 0.8777 0.8777 0.8777 0.8777 0.8774
3658.000000 0.8771 0.8767 0.8764 0.8761 0.8758
3663.000000 0.8755 0.8753 0.8750 0.8748 0.8745
3668.000000 0.8743 0.8742 0.8742 0.8741 0.8741
3673.000000 0.8741 0.8741 0.8742 0.8744 0.8746
3678.000000 0.8748 0.8749 0.8751 0.8756 0.8761
3683.000000 0.8766 0.8772 0.8776 0.8780 0.8780
3688.000000 0.8781 0.8782 0.8783 0.8784 0.8785
3693.000000 0.8787 0.8789 0.8791 0.8793 0.8795
3698.000000 0.8798 0.8801 0.8804 0.8808 0.8813
3703.000000 0.8818 0.8824 0.8829 0.8835 0.8840
3708.000000 0.8846 0.8850 0.8855 0.8857 0.8859
3713.000000 0.8860 0.8862 0.8863 0.8865 0.8865
3718.000000 0.8866 0.8865 0.8864 0.8862 0.8861
3723.000000 0.8860 0.8859 0.8858 0.8857 0.8854
3728.000000 0.8851 0.8847 0.8844 0.8840 0.8836
3733.000000 0.8831 0.8827 0.8821 0.8815 0.8809
3738.000000 0.8803 0.8797 0.8791 0.8789 0.8787
3743.000000 0.8785 0.8784 0.8782 0.8780 0.8778
3748.000000 0.8776 0.8774 0.8773 0.8773 0.8773
3753.000000 0.8773 0.8774 0.8774 0.8775 0.8775
3758.000000 0.8776 0.8777 0.8778 0.8779 0.8781
3763.000000 0.8782 0.8784 0.8786 0.8788 0.8789
3768.000000 0.8791 0.8792 0.8794 0.8795 0.8797
3773.000000 0.8798 0.8799 0.8799 0.8800 0.8800
3778.000000 0.8801 0.8790 0.8779 0.8768 0.8757
3783.000000 0.8746 0.8736 0.8728 0.8721
##END=
