##TITLE=CHLOROMETHYL METHYL ETHER
##JCAMP-DX=4.24
##DATA TYPE=INFRARED SPECTRUM
##CLASS=COBLENTZ
##ORIGIN=DOW CHEMICAL COMPANY
##OWNER=COBLENTZ SOCIETY
Collection (C) 2018 copyright by the U.S. Secretary of Commerce
on behalf of the United States of America. All rights reserved.
##DATE=1965/02/15
##NAMES=chloro(methoxy)methane
CHLOROMETHYL METHYL ETHER
##CAS REGISTRY NO=107-30-2
##MOLFORM=C2 H5 Cl O
##SOURCE REFERENCE=COBLENTZ NO. 6991
##$NIST SOURCE=COBLENTZ
##$NIST IMAGE=cob-r6991
##SPECTROMETER/DATA SYSTEM=DOW KBr FOREPRISM-GRATING
##INSTRUMENT PARAMETERS=BLAZED AT 3.5, 12.0, 20.0 MICRON, CHANGED AT 5.0, 7.5, 14.9 MICRON
##STATE=GAS (100 mmHg, N2 ADDED, TOTAL PRESSURE 600 mmHg)
##PATH LENGTH=5 CM
##SAMPLING PROCEDURE=TRANSMISSION
##RESOLUTION=2
##DATA PROCESSING=DIGITIZED BY NIST FROM HARD COPY (FROM TWO SEGMENTS)
##XUNITS=1/CM
##YUNITS=TRANSMITTANCE
##XFACTOR=1.000000
##YFACTOR=1
##DELTAX=1.262627
##FIRSTX=383.838
##LASTX=3799.24
##FIRSTY=0.996
##MAXX=3799.24
##MINX=383.838
##MAXY=1.001
##MINY=0.007
##NPOINTS=2706
##XYDATA=(X++(Y..Y))
383.838000 0.9960 0.9940 0.9940 0.9940 0.9940
390.151133 0.9940 0.9940 0.9940 0.9920 0.9920
396.464266 0.9920 0.9920 0.9920 0.9900 0.9900
402.777398 0.9880 0.9860 0.9860 0.9820 0.9820
409.090531 0.9800 0.9780 0.9780 0.9780 0.9760
415.403664 0.9720 0.9700 0.9680 0.9640 0.9561
421.716797 0.9540 0.9520 0.9480 0.9440 0.9420
428.029930 0.9380 0.9360 0.9280 0.9201 0.9140
434.343062 0.9120 0.9020 0.8940 0.8920 0.8840
440.656195 0.8581 0.8520 0.8242 0.8141 0.7961
446.969328 0.7940 0.7940 0.7880 0.7820 0.7760
453.282461 0.7760 0.7700 0.7640 0.7620 0.7640
459.595594 0.7680 0.7720 0.7740 0.7740 0.7760
465.908727 0.7800 0.7959 0.8199 0.8299 0.8459
472.221859 0.8940 0.9000 0.9140 0.9220 0.9280
478.534992 0.9320 0.9320 0.9360 0.9380 0.9420
484.848125 0.9440 0.9460 0.9460 0.9480 0.9480
491.161258 0.9500 0.9520 0.9520 0.9540 0.9540
497.474391 0.9540 0.9540 0.9560 0.9560 0.9560
503.787523 0.9560 0.9560 0.9560 0.9560 0.9560
510.100656 0.9560 0.9560 0.9560 0.9580 0.9580
516.413789 0.9580 0.9580 0.9580 0.9580 0.9580
522.726922 0.9580 0.9580 0.9560 0.9560 0.9560
529.040055 0.9560 0.9560 0.9580 0.9580 0.9580
535.353187 0.9580 0.9600 0.9600 0.9600 0.9600
541.666320 0.9600 0.9620 0.9640 0.9640 0.9660
547.979453 0.9640 0.9620 0.9580 0.9580 0.9560
554.292586 0.9560 0.9560 0.9560 0.9540 0.9520
560.605719 0.9520 0.9500 0.9480 0.9460 0.9440
566.918852 0.9420 0.9380 0.9380 0.9360 0.9360
573.231984 0.9340 0.9320 0.9300 0.9280 0.9240
579.545117 0.9240 0.9240 0.9180 0.9180 0.9160
585.858250 0.9120 0.9120 0.9100 0.9080 0.9080
592.171383 0.9080 0.9080 0.9080 0.9080 0.9080
598.484516 0.9080 0.9080 0.9060 0.9060 0.9040
604.797648 0.9020 0.8980 0.8960 0.8920 0.8920
611.110781 0.8880 0.8860 0.8820 0.8760 0.8760
617.423914 0.8640 0.8600 0.8540 0.8480 0.8401
623.737047 0.8360 0.8320 0.8320 0.8180 0.8140
630.050180 0.7961 0.7781 0.7621 0.7501 0.7421
636.363313 0.7340 0.6980 0.6641 0.6461 0.6061
642.676445 0.5861 0.5641 0.5382 0.4715 0.4293
648.989578 0.3290 0.3010 0.2391 0.1652 0.1550
655.302711 0.1371 0.0793 0.0193 0.0111 0.0110
661.615844 0.0090 0.0090 0.0090 0.0090 0.0090
667.928977 0.0090 0.0090 0.0090 0.0090 0.0090
674.242109 0.0090 0.0090 0.0090 0.0090 0.0090
680.555242 0.0090 0.0090 0.0090 0.0110 0.0110
686.868375 0.0130 0.0310 0.1148 0.1728 0.2607
693.181508 0.3247 0.4066 0.4686 0.5336 0.5975
699.494641 0.6620 0.6780 0.7020 0.7259 0.7659
705.807773 0.8018 0.8338 0.8559 0.8798 0.8919
712.120906 0.9060 0.9220 0.9440 0.9560 0.9620
718.434039 0.9700 0.9740 0.9780 0.9820 0.9820
724.747172 0.9900 0.9900 0.9900 0.9940 0.9980
731.060305 0.9980 0.9980 0.9980 0.9980 0.9980
737.373438 0.9980 0.9980 0.9980 0.9980 0.9980
743.686570 0.9980 0.9980 1.0010 1.0010 1.0010
749.999703 1.0010 1.0010 1.0010 1.0010 1.0010
756.312836 1.0000 1.0000 1.0000 1.0000 0.9980
762.625969 0.9960 0.9960 0.9960 0.9940 0.9900
768.939102 0.9880 0.9860 0.9860 0.9820 0.9800
775.252234 0.9800 0.9760 0.9720 0.9680 0.9680
781.565367 0.9660 0.9600 0.9580 0.9580 0.9540
787.878500 0.9520 0.9480 0.9480 0.9460 0.9460
794.191633 0.9460 0.9460 0.9460 0.9460 0.9460
800.504766 0.9460 0.9460 0.9460 0.9480 0.9480
806.817898 0.9480 0.9540 0.9560 0.9580 0.9600
813.131031 0.9660 0.9700 0.9720 0.9760 0.9780
819.444164 0.9800 0.9820 0.9820 0.9820 0.9820
825.757297 0.9820 0.9820 0.9840 0.9840 0.9840
832.070430 0.9840 0.9840 0.9840 0.9840 0.9840
838.383563 0.9840 0.9820 0.9820 0.9820 0.9840
844.696695 0.9820 0.9820 0.9840 0.9840 0.9860
851.009828 0.9860 0.9820 0.9820 0.9820 0.9820
857.322961 0.9800 0.9800 0.9800 0.9800 0.9800
863.636094 0.9800 0.9780 0.9780 0.9760 0.9740
869.949227 0.9720 0.9700 0.9680 0.9660 0.9600
876.262359 0.9580 0.9560 0.9460 0.9360 0.9340
882.575492 0.9240 0.9160 0.9061 0.8961 0.8940
888.888625 0.8680 0.8560 0.8340 0.7861 0.7800
895.201758 0.7621 0.7441 0.7042 0.6623 0.6223
901.514891 0.5840 0.5520 0.5141 0.4811 0.4591
907.828023 0.4431 0.3654 0.3232 0.2813 0.2592
914.141156 0.2270 0.2170 0.2070 0.1831 0.1730
920.454289 0.1630 0.1590 0.1510 0.1470 0.1450
926.767422 0.1430 0.1410 0.1250 0.1749 0.1411
933.080555 0.1390 0.1410 0.1649 0.1749 0.1869
939.393688 0.2130 0.2689 0.2930 0.3169 0.3469
945.706820 0.3649 0.4108 0.4488 0.4927 0.5337
952.019953 0.5760 0.5920 0.6160 0.6459 0.6699
958.333086 0.6959 0.7278 0.7638 0.7958 0.8000
964.646219 0.8140 0.8180 0.8200 0.8200 0.8140
970.959352 0.8040 0.7781 0.7601 0.7282 0.6942
977.272484 0.6680 0.6420 0.5382 0.4911 0.4591
983.585617 0.4271 0.4171 0.4269 0.4270 0.4389
989.898750 0.4390 0.3990 0.3810 0.2533 0.2889
996.211883 0.3746 0.4785 0.3736 0.3333 0.3330
1002.525016 0.3410 0.3470 0.3650 0.3909 0.4269
1008.838148 0.4788 0.5258 0.6175 0.6399 0.6420
1015.151281 0.6920 0.6940 0.7060 0.7259 0.7280
1021.464414 0.7459 0.7579 0.7600 0.7679 0.7779
1027.777547 0.7820 0.7940 0.7960 0.8060 0.8120
1034.090680 0.8140 0.8160 0.8180 0.8240 0.8240
1040.403813 0.8320 0.8320 0.8340 0.8360 0.8360
1046.716945 0.8360 0.8360 0.8360 0.8380 0.8400
1053.030078 0.8400 0.8420 0.8420 0.8420 0.8400
1059.343211 0.8360 0.8340 0.8320 0.8280 0.8220
1065.656344 0.8160 0.8140 0.7960 0.7800 0.7641
1071.969477 0.7600 0.7441 0.7221 0.7081 0.7080
1078.282609 0.6780 0.6660 0.6600 0.6460 0.6161
1084.595742 0.5961 0.5781 0.5601 0.5421 0.5241
1090.908875 0.4730 0.4350 0.3991 0.3731 0.3351
1097.222008 0.2912 0.2492 0.2052 0.1613 0.1193
1103.535141 0.0970 0.0750 0.0410 0.0151 0.0110
1109.848273 0.0090 0.0090 0.0090 0.0090 0.0090
1116.161406 0.0070 0.0070 0.0070 0.0070 0.0070
1122.474539 0.0090 0.0090 0.0090 0.0090 0.0090
1128.787672 0.0090 0.0090 0.0090 0.0090 0.0090
1135.100805 0.0090 0.0110 0.0170 0.0190 0.0369
1141.413938 0.0370 0.0550 0.0570 0.0590 0.1128
1147.727070 0.1170 0.1250 0.1250 0.1230 0.1190
1154.040203 0.1210 0.1470 0.1730 0.1989 0.2189
1160.353336 0.2230 0.2270 0.2369 0.2549 0.2610
1166.666469 0.2610 0.2550 0.2191 0.1791 0.1651
1172.979602 0.1471 0.1191 0.0693 0.0193 0.0150
1179.292734 0.0110 0.0090 0.0090 0.0090 0.0110
1185.605867 0.0110 0.0150 0.0170 0.0170 0.0190
1191.919000 0.0190 0.0190 0.0190 0.0170 0.0170
1198.232133 0.0150 0.0150 0.0130 0.0130 0.0150
1204.545266 0.0190 0.0330 0.1369 0.1390 0.1550
1210.858398 0.1670 0.2327 0.3026 0.3666 0.4365
1217.171531 0.5080 0.5320 0.5500 0.5660 0.5899
1223.484664 0.6019 0.6159 0.6220 0.6359 0.6479
1229.797797 0.6500 0.6620 0.6640 0.6700 0.6720
1236.110930 0.6760 0.6760 0.6760 0.6740 0.6740
1242.424062 0.6720 0.6700 0.6640 0.6600 0.6480
1248.737195 0.6440 0.6340 0.6300 0.6181 0.6160
1255.050328 0.6040 0.5900 0.5820 0.5760 0.5720
1261.363461 0.5660 0.5640 0.5620 0.5580 0.5560
1267.676594 0.5520 0.5500 0.5480 0.5380 0.5121
1273.989727 0.4931 0.5338 0.5658 0.5720 0.5760
1280.302859 0.5820 0.5840 0.5900 0.6000 0.6020
1286.615992 0.6060 0.6199 0.6200 0.6200 0.6180
1292.929125 0.6160 0.6140 0.5980 0.5780 0.5521
1299.242258 0.5301 0.5021 0.4732 0.4452 0.4192
1305.555391 0.3930 0.3371 0.3011 0.2651 0.2610
1311.868523 0.2630 0.2809 0.2969 0.3129 0.3388
1318.181656 0.3310 0.3350 0.3909 0.2294 0.2230
1324.494789 0.2349 0.2231 0.2190 0.2210 0.2428
1330.807922 0.3030 0.3809 0.4369 0.4789 0.5139
1337.121055 0.5777 0.6317 0.6698 0.6780 0.6919
1343.434187 0.7080 0.7240 0.7280 0.7500 0.7739
1349.747320 0.7939 0.7960 0.8000 0.8119 0.8199
1356.060453 0.8360 0.8520 0.8560 0.8740 0.8760
1362.373586 0.8800 0.8840 0.8840 0.8860 0.8880
1368.686719 0.8900 0.8900 0.8920 0.8940 0.8940
1374.999852 0.8940 0.8960 0.8960 0.8940 0.8821
1381.312984 0.8740 0.8720 0.8680 0.8660 0.8640
1387.626117 0.8620 0.8600 0.8540 0.8520 0.8441
1393.939250 0.8440 0.8520 0.8520 0.8640 0.8520
1400.252383 0.8520 0.8500 0.8500 0.8520 0.8540
1406.565516 0.8540 0.8560 0.8600 0.8640 0.8700
1412.878648 0.8740 0.8740 0.8800 0.8800 0.8780
1419.191781 0.8700 0.8700 0.8680 0.8640 0.8540
1425.504914 0.8520 0.8381 0.8360 0.8062 0.7861
1431.818047 0.7640 0.7580 0.7260 0.7080 0.7080
1438.131180 0.6960 0.6323 0.5763 0.5243 0.5002
1444.444312 0.4950 0.4930 0.4930 0.4930 0.4890
1450.757445 0.4671 0.4232 0.3971 0.3930 0.3930
1457.070578 0.3930 0.3950 0.3970 0.4010 0.4010
1463.383711 0.3990 0.3711 0.3710 0.4644 0.4650
1469.696844 0.4270 0.4210 0.3731 0.4348 0.4948
1476.009977 0.4990 0.5000 0.5099 0.5497 0.5778
1482.323109 0.5800 0.6120 0.6380 0.6500 0.6699
1488.636242 0.6979 0.7219 0.7240 0.7638 0.7660
1494.949375 0.7880 0.7900 0.7980 0.8080 0.8200
1501.262508 0.8339 0.8499 0.8639 0.8660 0.8700
1507.575641 0.8720 0.8740 0.8800 0.8840 0.8880
1513.888773 0.8920 0.8940 0.8940 0.9000 0.9040
1520.201906 0.9040 0.9060 0.9080 0.9100 0.9120
1526.515039 0.9120 0.9140 0.9140 0.9140 0.9140
1532.828172 0.9140 0.9140 0.9160 0.9160 0.9160
1539.141305 0.9160 0.9160 0.9160 0.9160 0.9160
1545.454437 0.9140 0.9140 0.9140 0.9120 0.9120
1551.767570 0.9120 0.9120 0.9100 0.9100 0.9100
1558.080703 0.9080 0.9060 0.9040 0.9020 0.9000
1564.393836 0.8980 0.8960 0.8960 0.8960 0.8960
1570.706969 0.8940 0.8940 0.8940 0.8940 0.8920
1577.020102 0.8920 0.8920 0.8900 0.8900 0.8900
1583.333234 0.8900 0.8880 0.8880 0.8880 0.8860
1589.646367 0.8860 0.8860 0.8860 0.8880 0.8900
1595.959500 0.8900 0.8920 0.8920 0.8920 0.8940
1602.272633 0.8940 0.8960 0.8980 0.9000 0.9020
1608.585766 0.9020 0.9040 0.9040 0.9040 0.9060
1614.898898 0.9080 0.9100 0.9120 0.9140 0.9140
1621.212031 0.9140 0.9160 0.9160 0.9160 0.9160
1627.525164 0.9160 0.9160 0.9160 0.9180 0.9180
1633.838297 0.9160 0.9160 0.9160 0.9140 0.9140
1640.151430 0.9160 0.9160 0.9160 0.9160 0.9160
1646.464562 0.9160 0.9160 0.9200 0.9200 0.9180
1652.777695 0.9180 0.9160 0.9160 0.9160 0.9200
1659.090828 0.9200 0.9200 0.9220 0.9240 0.9260
1665.403961 0.9280 0.9300 0.9320 0.9320 0.9320
1671.717094 0.9340 0.9340 0.9340 0.9340 0.9340
1678.030227 0.9360 0.9360 0.9360 0.9360 0.9360
1684.343359 0.9340 0.9340 0.9340 0.9340 0.9340
1690.656492 0.9360 0.9360 0.9360 0.9340 0.9340
1696.969625 0.9340 0.9340 0.9300 0.9280 0.9260
1703.282758 0.9240 0.9220 0.9200 0.9200 0.9200
1709.595891 0.9180 0.9180 0.9160 0.9160 0.9160
1715.909023 0.9160 0.9140 0.9140 0.9140 0.9120
1722.222156 0.9120 0.9120 0.9120 0.9100 0.9100
1728.535289 0.9100 0.9100 0.9060 0.9000 0.9000
1734.848422 0.8940 0.8920 0.8900 0.8840 0.8800
1741.161555 0.8740 0.7865 0.8695 0.8740 0.8800
1747.474687 0.8800 0.8800 0.8800 0.8780 0.8780
1753.787820 0.8760 0.8760 0.8740 0.8740 0.8760
1760.100953 0.8800 0.8820 0.8880 0.8900 0.8920
1766.414086 0.8940 0.9020 0.9040 0.9040 0.9060
1772.727219 0.9120 0.9140 0.9140 0.9140 0.9200
1779.040352 0.9220 0.9220 0.9240 0.9240 0.9240
1785.353484 0.9260 0.9260 0.9260 0.9280 0.9280
1791.666617 0.9300 0.9300 0.9320 0.9320 0.9320
1797.979750 0.9320 0.9320 0.9320 0.9320 0.9320
1804.292883 0.9340 0.9340 0.9340 0.9340 0.9340
1810.606016 0.9340 0.9340 0.9360 0.9360 0.9400
1816.919148 0.9440 0.9460 0.9480 0.9480 0.9500
1823.232281 0.9500 0.9500 0.9500 0.9500 0.9500
1829.545414 0.9480 0.9480 0.9460 0.9460 0.9460
1835.858547 0.9460 0.9440 0.9440 0.9440 0.9440
1842.171680 0.9440 0.9440 0.9440 0.9440 0.9440
1848.484812 0.9440 0.9440 0.9440 0.9420 0.9420
1854.797945 0.9420 0.9400 0.9380 0.9360 0.9340
1861.111078 0.9340 0.9340 0.9340 0.9340 0.9340
1867.424211 0.9340 0.9340 0.9360 0.9380 0.9400
1873.737344 0.9420 0.9420 0.9420 0.9420 0.9420
1880.050477 0.9440 0.9440 0.9440 0.9440 0.9460
1886.363609 0.9480 0.9500 0.9540 0.9560 0.9580
1892.676742 0.9600 0.9600 0.9620 0.9620 0.9620
1898.989875 0.9620 0.9620 0.9620 0.9620 0.9620
1905.303008 0.9620 0.9620 0.9600 0.9600 0.9580
1911.616141 0.9580 0.9580 0.9600 0.9580 0.9580
1917.929273 0.9580 0.9580 0.9580 0.9580 0.9580
1924.242406 0.9580 0.9580 0.9580 0.9580 0.9580
1930.555539 0.9580 0.9580 0.9580 0.9580 0.9580
1936.868672 0.9580 0.9580 0.9580 0.9580 0.9580
1943.181805 0.9580 0.9600 0.9580 0.9580 0.9580
1949.494937 0.9580 0.9580 0.9580 0.9560 0.9560
1955.808070 0.9560 0.9560 0.9560 0.9540 0.9480
1962.121203 0.9480 0.9480 0.9460 0.9460 0.9460
1968.434336 0.9460 0.9460 0.9460 0.9460 0.9460
1974.747469 0.9460 0.9440 0.9440 0.9460 0.9460
1981.060602 0.9460 0.9460 0.9460 0.9480 0.9480
1987.373734 0.9480 0.9480 0.9480 0.9480 0.9480
1993.686867 0.9480 0.9500 0.9500 0.9540 0.9540
2000.000000 0.9540 0.9550 0.9560 0.9560 0.9560
2006.313133 0.9550 0.9540 0.9540 0.9540 0.9511
2012.626266 0.9481 0.9480 0.9480 0.9471 0.9461
2018.939398 0.9441 0.9421 0.9383 0.9343 0.9331
2025.252531 0.9321 0.9282 0.9242 0.9231 0.9221
2031.565664 0.9136 0.9047 0.8985 0.8925 0.8883
2037.878797 0.8844 0.8795 0.8745 0.8560 0.8361
2044.191930 0.8233 0.8114 0.8091 0.8081 0.8080
2050.505062 0.8080 0.8098 0.8118 0.8138 0.8158
2056.818195 0.8178 0.8198 0.8200 0.8200 0.8165
2063.131328 0.8126 0.8120 0.8120 0.8196 0.8286
2069.444461 0.8325 0.8355 0.8452 0.8561 0.8873
2075.757594 0.9226 0.9288 0.9298 0.9308 0.9318
2082.070727 0.9320 0.9320 0.9336 0.9356 0.9360
2088.383859 0.9360 0.9360 0.9360 0.9360 0.9360
2094.696992 0.9352 0.9342 0.9340 0.9340 0.9324
2101.010125 0.9304 0.9268 0.9228 0.9196 0.9167
2107.323258 0.9121 0.9071 0.9045 0.9025 0.8898
2113.636391 0.8739 0.8564 0.8385 0.8310 0.8270
2119.949523 0.8253 0.8243 0.8233 0.8223 0.8220
2126.262656 0.8220 0.8227 0.8237 0.8358 0.8517
2132.575789 0.8436 0.8267 0.8242 0.8271 0.8351
2138.888922 0.8451 0.8501 0.8531 0.8686 0.8896
2145.202055 0.9132 0.9381 0.9467 0.9477 0.9494
2151.515187 0.9514 0.9527 0.9537 0.9547 0.9557
2157.828320 0.9560 0.9560 0.9560 0.9560 0.9560
2164.141453 0.9560 0.9560 0.9560 0.9560 0.9560
2170.454586 0.9554 0.9544 0.9540 0.9540 0.9534
2176.767719 0.9524 0.9514 0.9504 0.9494 0.9484
2183.080852 0.9474 0.9464 0.9448 0.9428 0.9414
2189.393984 0.9404 0.9400 0.9400 0.9388 0.9368
2195.707117 0.9360 0.9360 0.9366 0.9376 0.9392
2202.020250 0.9412 0.9426 0.9436 0.9434 0.9424
2208.333383 0.9397 0.9357 0.9340 0.9340 0.9379
2214.646516 0.9449 0.9491 0.9511 0.9531 0.9551
2220.959648 0.9560 0.9560 0.9565 0.9575 0.9580
2227.272781 0.9580 0.9580 0.9580 0.9575 0.9565
2233.585914 0.9555 0.9545 0.9524 0.9495 0.9475
2239.899047 0.9465 0.9450 0.9430 0.9415 0.9405
2246.212180 0.9395 0.9385 0.9380 0.9380 0.9380
2252.525312 0.9380 0.9385 0.9395 0.9405 0.9415
2258.838445 0.9425 0.9435 0.9440 0.9440 0.9445
2265.151578 0.9455 0.9465 0.9474 0.9493 0.9523
2271.464711 0.9544 0.9554 0.9564 0.9574 0.9584
2277.777844 0.9594 0.9600 0.9600 0.9600 0.9600
2284.090977 0.9604 0.9614 0.9620 0.9620 0.9620
2290.404109 0.9620 0.9616 0.9606 0.9596 0.9586
2296.717242 0.9580 0.9580 0.9576 0.9566 0.9549
2303.030375 0.9518 0.9484 0.9445 0.9416 0.9406
2309.343508 0.9389 0.9359 0.9336 0.9326 0.9320
2315.656641 0.9320 0.9324 0.9333 0.9340 0.9340
2321.969773 0.9353 0.9393 0.9440 0.9499 0.9547
2328.282906 0.9567 0.9583 0.9593 0.9603 0.9613
2334.596039 0.9633 0.9673 0.9700 0.9700 0.9703
2340.909172 0.9713 0.9720 0.9720 0.9720 0.9720
2347.222305 0.9717 0.9707 0.9694 0.9675 0.9655
2353.535437 0.9634 0.9617 0.9607 0.9600 0.9600
2359.848570 0.9597 0.9587 0.9575 0.9555 0.9537
2366.161703 0.9527 0.9520 0.9520 0.9515 0.9495
2372.474836 0.9471 0.9431 0.9398 0.9388 0.9380
2378.787969 0.9380 0.9378 0.9368 0.9358 0.9348
2385.101102 0.9340 0.9340 0.9340 0.9340 0.9340
2391.414234 0.9340 0.9340 0.9340 0.9342 0.9352
2397.727367 0.9362 0.9372 0.9384 0.9403 0.9422
2404.040500 0.9432 0.9442 0.9452 0.9465 0.9495
2410.353633 0.9523 0.9543 0.9560 0.9560 0.9563
2416.666766 0.9583 0.9605 0.9634 0.9660 0.9660
2422.979898 0.9661 0.9671 0.9683 0.9702 0.9720
2429.293031 0.9720 0.9720 0.9720 0.9720 0.9720
2435.606164 0.9720 0.9720 0.9720 0.9720 0.9720
2441.919297 0.9720 0.9719 0.9709 0.9700 0.9700
2448.232430 0.9700 0.9700 0.9700 0.9700 0.9700
2454.545562 0.9700 0.9699 0.9689 0.9680 0.9680
2460.858695 0.9680 0.9680 0.9681 0.9691 0.9700
2467.171828 0.9700 0.9700 0.9700 0.9700 0.9700
2473.484961 0.9701 0.9721 0.9740 0.9750 0.9760
2479.798094 0.9770 0.9780 0.9780 0.9780 0.9790
2486.111227 0.9800 0.9800 0.9800 0.9810 0.9820
2492.424359 0.9820 0.9820 0.9820 0.9820 0.9820
2498.737492 0.9820 0.9820 0.9820 0.9820 0.9820
2505.050625 0.9820 0.9820 0.9820 0.9820 0.9820
2511.363758 0.9820 0.9820 0.9820 0.9820 0.9820
2517.676891 0.9830 0.9839 0.9840 0.9840 0.9840
2523.990023 0.9840 0.9840 0.9840 0.9840 0.9840
2530.303156 0.9840 0.9840 0.9840 0.9840 0.9831
2536.616289 0.9821 0.9820 0.9820 0.9820 0.9820
2542.929422 0.9820 0.9820 0.9820 0.9820 0.9820
2549.242555 0.9820 0.9820 0.9820 0.9820 0.9820
2555.555687 0.9820 0.9820 0.9820 0.9820 0.9820
2561.868820 0.9820 0.9811 0.9801 0.9800 0.9800
2568.181953 0.9800 0.9800 0.9792 0.9782 0.9780
2574.495086 0.9780 0.9772 0.9762 0.9760 0.9760
2580.808219 0.9744 0.9723 0.9712 0.9702 0.9684
2587.121352 0.9664 0.9660 0.9660 0.9652 0.9642
2593.434484 0.9632 0.9622 0.9604 0.9584 0.9580
2599.747617 0.9580 0.9588 0.9598 0.9608 0.9618
2606.060750 0.9620 0.9620 0.9628 0.9638 0.9640
2612.373883 0.9640 0.9632 0.9622 0.9620 0.9620
2618.687016 0.9613 0.9603 0.9600 0.9600 0.9593
2625.000148 0.9583 0.9580 0.9580 0.9580 0.9580
2631.313281 0.9580 0.9580 0.9580 0.9580 0.9587
2637.626414 0.9597 0.9600 0.9600 0.9607 0.9617
2643.939547 0.9620 0.9620 0.9634 0.9654 0.9667
2650.252680 0.9677 0.9680 0.9680 0.9687 0.9697
2656.565812 0.9700 0.9700 0.9700 0.9700 0.9700
2662.878945 0.9700 0.9700 0.9700 0.9700 0.9700
2669.192078 0.9700 0.9700 0.9700 0.9700 0.9700
2675.505211 0.9700 0.9706 0.9716 0.9726 0.9736
2681.818344 0.9752 0.9773 0.9780 0.9780 0.9774
2688.131477 0.9764 0.9760 0.9760 0.9754 0.9744
2694.444609 0.9728 0.9708 0.9694 0.9684 0.9680
2700.757742 0.9680 0.9680 0.9680 0.9686 0.9696
2707.070875 0.9706 0.9716 0.9720 0.9720 0.9714
2713.384008 0.9704 0.9694 0.9684 0.9680 0.9680
2719.697141 0.9675 0.9665 0.9644 0.9614 0.9589
2726.010273 0.9569 0.9555 0.9545 0.9540 0.9540
2732.323406 0.9540 0.9540 0.9529 0.9509 0.9490
2738.636539 0.9470 0.9450 0.9430 0.9400 0.9360
2744.949672 0.9335 0.9325 0.9310 0.9290 0.9270
2751.262805 0.9250 0.9226 0.9196 0.9171 0.9151
2757.575937 0.9135 0.9125 0.9106 0.9076 0.9046
2763.889070 0.9016 0.8995 0.8985 0.8975 0.8965
2770.202203 0.8956 0.8946 0.8936 0.8926 0.8834
2776.515336 0.8634 0.8520 0.8520 0.8570 0.8689
2782.828469 0.8764 0.8774 0.8801 0.8851 0.8880
2789.141602 0.8880 0.8884 0.8894 0.8900 0.8900
2795.454734 0.8888 0.8858 0.8813 0.8743 0.8662
2801.767867 0.8562 0.8474 0.8404 0.8349 0.8319
2808.081000 0.8260 0.8149 0.8027 0.7888 0.7707
2814.394133 0.7458 0.7166 0.6797 0.6482 0.6263
2820.707266 0.6037 0.5798 0.5555 0.5306 0.5069
2827.020398 0.4855 0.4694 0.4644 0.4487 0.4098
2833.333531 0.3761 0.3539 0.3383 0.3364 0.3356
2839.646664 0.3376 0.3427 0.3547 0.3667 0.3786
2845.959797 0.3914 0.4064 0.4231 0.4440 0.4646
2852.272930 0.4845 0.5002 0.5047 0.5091 0.5130
2858.586062 0.5168 0.5198 0.5248 0.5347 0.5420
2864.899195 0.5420 0.5410 0.5370 0.5315 0.5215
2871.212328 0.5123 0.5053 0.4980 0.4895 0.4784
2877.525461 0.4585 0.4379 0.4150 0.3929 0.3740
2883.838594 0.3552 0.3370 0.3219 0.3169 0.3060
2890.151727 0.2741 0.2458 0.2309 0.2178 0.2118
2896.464859 0.2060 0.2010 0.1962 0.1923 0.1886
2902.777992 0.1866 0.1848 0.1838 0.1828 0.1818
2909.091125 0.1808 0.1798 0.1790 0.1790 0.1790
2915.404258 0.1790 0.1788 0.1778 0.1758 0.1678
2921.717391 0.1604 0.1564 0.1530 0.1530 0.1526
2928.030523 0.1496 0.1455 0.1336 0.1220 0.1130
2934.343656 0.1047 0.1016 0.0990 0.0990 0.0989
2940.656789 0.0979 0.0972 0.0992 0.1011 0.1021
2946.969922 0.1030 0.1030 0.1030 0.1030 0.1030
2953.283055 0.1030 0.1025 0.0955 0.0885 0.0805
2959.596187 0.0746 0.1039 0.1317 0.1406 0.1495
2965.909320 0.1575 0.1665 0.1914 0.2159 0.2328
2972.222453 0.2494 0.2573 0.2653 0.2743 0.2833
2978.535586 0.2943 0.3053 0.3172 0.3293 0.3542
2984.848719 0.3791 0.4044 0.4293 0.4423 0.4551
2991.161852 0.4601 0.4650 0.4670 0.4690 0.4670
2997.474984 0.4650 0.4373 0.4094 0.3736 0.3378
3003.788117 0.3049 0.2720 0.2691 0.2671 0.2670
3010.101250 0.2670 0.2680 0.2690 0.2690 0.2690
3016.414383 0.2623 0.2553 0.2407 0.2257 0.2639
3022.727516 0.3047 0.3042 0.3012 0.3001 0.2991
3029.040648 0.3018 0.3048 0.3426 0.3834 0.4288
3035.353781 0.4746 0.4817 0.4848 0.5195 0.5569
3041.666914 0.5928 0.6287 0.6347 0.6377 0.6550
3047.980047 0.6740 0.6964 0.7194 0.7335 0.7464
3054.293180 0.7637 0.7816 0.7978 0.8138 0.8229
3060.606312 0.8308 0.8406 0.8507 0.8598 0.8688
3066.919445 0.8709 0.8719 0.8737 0.8757 0.8802
3073.232578 0.8852 0.8894 0.8933 0.8957 0.8977
3079.545711 0.8996 0.9016 0.9044 0.9074 0.9096
3085.858844 0.9116 0.9128 0.9138 0.9148 0.9158
3092.171977 0.9192 0.9232 0.9248 0.9258 0.9276
3098.485109 0.9296 0.9308 0.9318 0.9336 0.9356
3104.798242 0.9360 0.9360 0.9375 0.9395 0.9408
3111.111375 0.9418 0.9443 0.9473 0.9488 0.9498
3117.424508 0.9500 0.9500 0.9508 0.9517 0.9527
3123.737641 0.9537 0.9540 0.9540 0.9540 0.9540
3130.050773 0.9547 0.9557 0.9560 0.9560 0.9553
3136.363906 0.9543 0.9540 0.9540 0.9547 0.9557
3142.677039 0.9560 0.9560 0.9567 0.9577 0.9587
3148.990172 0.9597 0.9607 0.9617 0.9634 0.9654
3155.303305 0.9673 0.9693 0.9700 0.9700 0.9713
3161.616437 0.9733 0.9753 0.9773 0.9787 0.9797
3167.929570 0.9800 0.9800 0.9807 0.9816 0.9820
3174.242703 0.9820 0.9820 0.9820 0.9820 0.9820
3180.555836 0.9820 0.9820 0.9820 0.9820 0.9820
3186.868969 0.9820 0.9820 0.9820 0.9820 0.9820
3193.182102 0.9820 0.9820 0.9826 0.9836 0.9840
3199.495234 0.9840 0.9846 0.9856 0.9866 0.9876
3205.808367 0.9880 0.9880 0.9880 0.9880 0.9880
3212.121500 0.9880 0.9880 0.9880 0.9880 0.9880
3218.434633 0.9880 0.9880 0.9880 0.9880 0.9880
3224.747766 0.9880 0.9880 0.9880 0.9880 0.9880
3231.060898 0.9880 0.9880 0.9880 0.9880 0.9880
3237.374031 0.9880 0.9880 0.9880 0.9885 0.9895
3243.687164 0.9900 0.9900 0.9900 0.9900 0.9905
3250.000297 0.9915 0.9920 0.9920 0.9920 0.9920
3256.313430 0.9920 0.9920 0.9920 0.9920 0.9915
3262.626562 0.9905 0.9900 0.9900 0.9900 0.9900
3268.939695 0.9900 0.9900 0.9900 0.9900 0.9900
3275.252828 0.9900 0.9900 0.9900 0.9900 0.9900
3281.565961 0.9900 0.9900 0.9900 0.9900 0.9900
3287.879094 0.9900 0.9900 0.9900 0.9896 0.9886
3294.192227 0.9880 0.9880 0.9880 0.9880 0.9880
3300.505359 0.9880 0.9880 0.9880 0.9880 0.9880
3306.818492 0.9880 0.9880 0.9884 0.9894 0.9900
3313.131625 0.9900 0.9900 0.9900 0.9900 0.9900
3319.444758 0.9904 0.9914 0.9920 0.9920 0.9920
3325.757891 0.9920 0.9923 0.9933 0.9940 0.9940
3332.071023 0.9940 0.9940 0.9940 0.9940 0.9940
3338.384156 0.9940 0.9940 0.9940 0.9937 0.9927
3344.697289 0.9920 0.9920 0.9917 0.9907 0.9900
3351.010422 0.9900 0.9900 0.9900 0.9900 0.9900
3357.323555 0.9900 0.9900 0.9900 0.9900 0.9900
3363.636687 0.9900 0.9900 0.9900 0.9900 0.9900
3369.949820 0.9903 0.9913 0.9920 0.9920 0.9920
3376.262953 0.9920 0.9920 0.9920 0.9920 0.9920
3382.576086 0.9920 0.9920 0.9918 0.9908 0.9900
3388.889219 0.9900 0.9900 0.9900 0.9900 0.9900
3395.202352 0.9900 0.9900 0.9902 0.9912 0.9920
3401.515484 0.9920 0.9920 0.9920 0.9922 0.9932
3407.828617 0.9940 0.9940 0.9940 0.9940 0.9940
3414.141750 0.9940 0.9940 0.9940 0.9940 0.9940
3420.454883 0.9940 0.9940 0.9940 0.9940 0.9939
3426.768016 0.9929 0.9921 0.9931 0.9940 0.9940
3433.081148 0.9940 0.9940 0.9940 0.9940 0.9940
3439.394281 0.9940 0.9940 0.9940 0.9940 0.9940
3445.707414 0.9940 0.9940 0.9941 0.9951 0.9960
3452.020547 0.9960 0.9960 0.9960 0.9960 0.9960
3458.333680 0.9961 0.9971 0.9980 0.9980 0.9980
3464.646812 0.9980 0.9980 0.9980 0.9980 0.9980
3470.959945 0.9980 0.9980 0.9980 0.9980 0.9980
3477.273078 0.9980 0.9980 0.9980 0.9980 0.9980
3483.586211 0.9980 0.9980 0.9980 0.9980 0.9980
3489.899344 0.9980 0.9980 0.9980 0.9980 0.9980
3496.212477 0.9980 0.9980 0.9980 0.9980 0.9980
3502.525609 0.9980 0.9980 0.9980 0.9980 0.9980
3508.838742 0.9980 0.9980 0.9980 0.9980 0.9980
3515.151875 0.9980 0.9980 0.9980 0.9980 0.9980
3521.465008 0.9980 0.9990 0.9999 1.0000 1.0000
3527.778141 1.0000 1.0000 1.0000 1.0000 1.0000
3534.091273 1.0000 1.0000 1.0000 1.0000 1.0000
3540.404406 1.0000 1.0000 1.0000 1.0000 1.0000
3546.717539 1.0000 1.0000 1.0000 1.0000 1.0000
3553.030672 1.0000 1.0000 1.0000 1.0000 1.0000
3559.343805 1.0000 1.0000 1.0000 1.0000 1.0000
3565.656937 1.0000 1.0000 1.0000 1.0000 1.0000
3571.970070 1.0000 1.0000 1.0000 1.0000 1.0000
3578.283203 1.0000 1.0000 1.0000 1.0000 1.0000
3584.596336 1.0000 1.0004 1.0009 1.0010 1.0010
3590.909469 1.0010 1.0010 1.0010 1.0010 1.0010
3597.222602 1.0010 1.0010 1.0010 1.0006 1.0001
3603.535734 1.0000 1.0000 1.0000 1.0000 1.0000
3609.848867 1.0000 1.0000 1.0000 1.0000 1.0000
3616.162000 1.0000 1.0000 1.0000 1.0000 1.0000
3622.475133 1.0000 1.0000 1.0000 1.0000 1.0000
3628.788266 1.0000 1.0000 1.0000 1.0000 1.0000
3635.101398 1.0000 1.0000 1.0000 1.0000 1.0000
3641.414531 0.9993 0.9983 0.9980 0.9980 0.9980
3647.727664 0.9980 0.9980 0.9980 0.9980 0.9980
3654.040797 0.9987 0.9997 1.0000 1.0000 1.0000
3660.353930 1.0000 1.0000 1.0000 1.0000 1.0000
3666.667062 1.0000 1.0000 1.0000 1.0000 1.0000
3672.980195 1.0000 1.0000 1.0000 1.0000 1.0000
3679.293328 1.0000 1.0000 1.0000 1.0000 0.9994
3685.606461 0.9984 0.9980 0.9980 0.9980 0.9980
3691.919594 0.9968 0.9948 0.9934 0.9924 0.9920
3698.232727 0.9920 0.9920 0.9920 0.9938 0.9968
3704.545859 0.9980 0.9980 0.9986 0.9996 1.0000
3710.858992 1.0000 1.0000 1.0000 0.9994 0.9985
3717.172125 0.9980 0.9980 0.9980 0.9980 0.9980
3723.485258 0.9980 0.9980 0.9980 0.9985 0.9995
3729.798391 1.0000 1.0000 1.0000 1.0000 1.0000
3736.111523 1.0000 1.0003 1.0008 1.0010 1.0010
3742.424656 1.0010 1.0010 1.0010 1.0010 1.0010
3748.737789 1.0010 1.0008 1.0003 1.0000 1.0000
3755.050922 1.0000 1.0000 1.0000 1.0000 1.0000
3761.364055 1.0000 1.0000 1.0000 1.0000 1.0000
3767.677187 0.9991 0.9971 0.9960 0.9960 0.9960
3773.990320 0.9960 0.9960 0.9960 0.9960 0.9960
3780.303453 0.9960 0.9960 0.9960 0.9960 0.9956
3786.616586 0.9946 0.9940 0.9940 0.9944 0.9954
3792.929719 0.9964 0.9974 0.9984 0.9994 1.0000
3799.242852 1.0000
##END=
