##TITLE=1-BUTYNE
##JCAMP-DX=4.24
##DATA TYPE=INFRARED SPECTRUM
##CLASS=COBLENTZ III
##ORIGIN=DOW CHEMICAL COMPANY
##OWNER=COBLENTZ SOCIETY
Collection (C) 2018 copyright by the U.S. Secretary of Commerce
on behalf of the United States of America. All rights reserved.
##DATE=1959/04/16
##CAS REGISTRY NO=107-00-6
##MOLFORM=C4 H6
##SOURCE REFERENCE=COBLENTZ NO. 10135
##$NIST SOURCE=COBLENTZ
##$NIST IMAGE=cob10135
##SPECTROMETER/DATA SYSTEM=DOW KBr FOREPRISM-GRATING
##INSTRUMENT PARAMETERS=BLAZED AT 3.5, 12.0, 20.0 MICRON, CHANGED AT 5.0, 7.5, 14.9 MICRON
##STATE=GAS IN SOLUTION (CCl4 FOR 3800-1330, CS2 FOR 1330-450 CM^-^1)
##PATH LENGTH=0.011, 0.012 CM
$$SPECTRAL CONTAMINATION DUE TO CCl4 AROUND 1550, AND CS2 AROUND 855 CM^-^1
##SAMPLING PROCEDURE=TRANSMISSION
##RESOLUTION=4
##DATA PROCESSING=DIGITIZED BY NIST FROM HARD COPY (FROM TWO SEGMENTS)
##XUNITS=1/CM
##YUNITS=TRANSMITTANCE
##XFACTOR=1.000000
##YFACTOR=1
##DELTAX=0.869565
##FIRSTX=452.174
##LASTX=3789.57
##FIRSTY=0.867
##MAXX=3789.57
##MINX=452.174
##MAXY=1.014
##MINY=0.023
##NPOINTS=3839
##XYDATA=(X++(Y..Y))
452.174000 0.8670 0.8670 0.8670 0.8670 0.8670
456.521826 0.8670 0.8670 0.8670 0.8670 0.8700
460.869652 0.8700 0.8690 0.8690 0.8700 0.8700
465.217478 0.8700 0.8700 0.8700 0.8700 0.8700
469.565303 0.8690 0.8690 0.8690 0.8690 0.8690
473.913129 0.8690 0.8690 0.8690 0.8690 0.8690
478.260955 0.8690 0.8690 0.8700 0.8690 0.8690
482.608781 0.8690 0.8690 0.8690 0.8690 0.8690
486.956607 0.8690 0.8670 0.8670 0.8660 0.8660
491.304433 0.8650 0.8650 0.8650 0.8630 0.8620
495.652258 0.8620 0.8610 0.8590 0.8580 0.8560
500.000084 0.8550 0.8500 0.8480 0.8440 0.8360
504.347910 0.8330 0.8280 0.8200 0.8140 0.8100
508.695736 0.8100 0.8090 0.8090 0.8100 0.8180
513.043562 0.8290 0.8320 0.8390 0.8500 0.8520
517.391388 0.8590 0.8670 0.8690 0.8710 0.8760
521.739213 0.8800 0.8840 0.8850 0.8890 0.8910
526.087039 0.8910 0.8920 0.8920 0.8930 0.8950
530.434865 0.8950 0.8960 0.8970 0.9000 0.9040
534.782691 0.9050 0.9070 0.9070 0.9100 0.9110
539.130517 0.9120 0.9120 0.9140 0.9150 0.9150
543.478343 0.9160 0.9180 0.9190 0.9200 0.9220
547.826169 0.9230 0.9250 0.9250 0.9260 0.9270
552.173994 0.9270 0.9270 0.9270 0.9270 0.9290
556.521820 0.9290 0.9300 0.9300 0.9300 0.9300
560.869646 0.9300 0.9290 0.9290 0.9300 0.9300
565.217472 0.9310 0.9310 0.9310 0.9310 0.9310
569.565298 0.9310 0.9310 0.9310 0.9310 0.9290
573.913124 0.9290 0.9290 0.9290 0.9290 0.9290
578.260949 0.9270 0.9270 0.9290 0.9290 0.9260
582.608775 0.9250 0.9230 0.9230 0.9200 0.9190
586.956601 0.9150 0.9110 0.9110 0.9110 0.9110
591.304427 0.9110 0.9110 0.9110 0.9080 0.9050
595.652253 0.9030 0.9030 0.9030 0.9010 0.8990
600.000079 0.8960 0.8920 0.8890 0.8860 0.8850
604.347904 0.8820 0.8740 0.8700 0.8690 0.8561
608.695730 0.8480 0.8400 0.8290 0.8170 0.8030
613.043556 0.7950 0.7801 0.7651 0.7491 0.7381
617.391382 0.7240 0.7000 0.6860 0.6530 0.6171
621.739208 0.5791 0.5361 0.4902 0.4452 0.3883
626.087034 0.3260 0.2610 0.1861 0.1580 0.1141
630.434860 0.1110 0.1140 0.1329 0.1400 0.1728
634.782685 0.2050 0.2470 0.2869 0.3289 0.3759
639.130511 0.4009 0.4777 0.5138 0.5657 0.5740
643.478337 0.6110 0.6520 0.6820 0.7040 0.7110
647.826163 0.7260 0.7380 0.7430 0.7579 0.7839
652.173989 0.7900 0.8060 0.8220 0.8260 0.8310
656.521815 0.8330 0.8430 0.8500 0.8520 0.8540
660.869640 0.8630 0.8670 0.8710 0.8730 0.8740
665.217466 0.8770 0.8929 0.9000 0.9010 0.9030
669.565292 0.9030 0.9030 0.9030 0.9030 0.9050
673.913118 0.9050 0.9110 0.9120 0.9140 0.9160
678.260944 0.9180 0.9180 0.9190 0.9200 0.9230
682.608770 0.9260 0.9270 0.9290 0.9300 0.9300
686.956596 0.9300 0.9300 0.9300 0.9300 0.9300
691.304421 0.9310 0.9310 0.9310 0.9310 0.9310
695.652247 0.9310 0.9310 0.9310 0.9310 0.9310
700.000073 0.9310 0.9290 0.9290 0.9290 0.9290
704.347899 0.9290 0.9290 0.9300 0.9310 0.9310
708.695725 0.9330 0.9330 0.9340 0.9340 0.9340
713.043551 0.9350 0.9370 0.9370 0.9340 0.9340
717.391376 0.9340 0.9340 0.9340 0.9350 0.9350
721.739202 0.9370 0.9380 0.9370 0.9370 0.9370
726.087028 0.9350 0.9340 0.9340 0.9340 0.9340
730.434854 0.9340 0.9340 0.9340 0.9340 0.9340
734.782680 0.9340 0.9340 0.9340 0.9350 0.9370
739.130506 0.9400 0.9420 0.9440 0.9450 0.9460
743.478331 0.9460 0.9460 0.9460 0.9480 0.9480
747.826157 0.9490 0.9490 0.9490 0.9490 0.9490
752.173983 0.9490 0.9490 0.9490 0.9500 0.9530
756.521809 0.9530 0.9550 0.9550 0.9550 0.9550
760.869635 0.9550 0.9530 0.9500 0.9480 0.9480
765.217461 0.9460 0.9460 0.9460 0.9460 0.9460
769.565287 0.9460 0.9460 0.9450 0.9440 0.9410
773.913112 0.9400 0.9380 0.9350 0.9330 0.9310
778.260938 0.9310 0.9300 0.9290 0.9250 0.9230
782.608764 0.9230 0.9250 0.9250 0.9270 0.9310
786.956590 0.9330 0.9340 0.9340 0.9350 0.9350
791.304416 0.9370 0.9380 0.9380 0.9400 0.9400
795.652242 0.9400 0.9400 0.9400 0.9380 0.9380
800.000067 0.9380 0.9380 0.9400 0.9420 0.9420
804.347893 0.9440 0.9450 0.9460 0.9450 0.9450
808.695719 0.9440 0.9420 0.9420 0.9440 0.9450
813.043545 0.9450 0.9450 0.9450 0.9450 0.9460
817.391371 0.9460 0.9460 0.9450 0.9450 0.9440
821.739197 0.9440 0.9440 0.9440 0.9440 0.9440
826.087022 0.9420 0.9410 0.9400 0.9380 0.9380
830.434848 0.9370 0.9340 0.9330 0.9310 0.9290
834.782674 0.9250 0.9220 0.9180 0.9110 0.9050
839.130500 0.9050 0.9040 0.9000 0.8910 0.8801
843.478326 0.8740 0.8620 0.8540 0.8440 0.8400
847.826152 0.8310 0.8141 0.8050 0.7950 0.7831
852.173978 0.7680 0.7650 0.7620 0.7600 0.7600
856.521803 0.7600 0.7610 0.7610 0.7640 0.7650
860.869629 0.7690 0.7720 0.7750 0.7830 0.7880
865.217455 0.7940 0.7940 0.7980 0.8020 0.8100
869.565281 0.8170 0.8200 0.8250 0.8290 0.8310
873.913107 0.8320 0.8350 0.8390 0.8460 0.8500
878.260933 0.8500 0.8510 0.8540 0.8560 0.8650
882.608758 0.8730 0.8800 0.8820 0.8850 0.8920
886.956584 0.8970 0.8990 0.9070 0.9110 0.9140
891.304410 0.9160 0.9230 0.9260 0.9290 0.9310
895.652236 0.9310 0.9330 0.9340 0.9350 0.9400
900.000062 0.9420 0.9440 0.9440 0.9440 0.9440
904.347888 0.9440 0.9460 0.9480 0.9490 0.9490
908.695713 0.9500 0.9520 0.9530 0.9530 0.9550
913.043539 0.9560 0.9560 0.9560 0.9590 0.9590
917.391365 0.9570 0.9570 0.9570 0.9570 0.9560
921.739191 0.9570 0.9590 0.9600 0.9600 0.9600
926.087017 0.9600 0.9600 0.9600 0.9610 0.9610
930.434843 0.9610 0.9600 0.9600 0.9610 0.9610
934.782669 0.9610 0.9610 0.9630 0.9630 0.9640
939.130494 0.9640 0.9640 0.9640 0.9640 0.9640
943.478320 0.9640 0.9640 0.9640 0.9640 0.9640
947.826146 0.9640 0.9640 0.9640 0.9650 0.9650
952.173972 0.9650 0.9650 0.9650 0.9650 0.9670
956.521798 0.9680 0.9680 0.9680 0.9670 0.9650
960.869624 0.9670 0.9670 0.9650 0.9640 0.9640
965.217449 0.9640 0.9640 0.9640 0.9640 0.9640
969.565275 0.9630 0.9630 0.9630 0.9610 0.9610
973.913101 0.9600 0.9600 0.9600 0.9600 0.9600
978.260927 0.9600 0.9600 0.9610 0.9610 0.9630
982.608753 0.9630 0.9610 0.9600 0.9600 0.9600
986.956579 0.9600 0.9600 0.9590 0.9570 0.9570
991.304404 0.9560 0.9560 0.9560 0.9550 0.9550
995.652230 0.9530 0.9530 0.9530 0.9520 0.9520
1000.000056 0.9520 0.9520 0.9500 0.9500 0.9500
1004.347882 0.9500 0.9500 0.9500 0.9500 0.9500
1008.695708 0.9500 0.9500 0.9520 0.9520 0.9500
1013.043534 0.9500 0.9490 0.9480 0.9480 0.9460
1017.391360 0.9460 0.9460 0.9460 0.9460 0.9460
1021.739185 0.9460 0.9460 0.9450 0.9440 0.9440
1026.087011 0.9440 0.9440 0.9440 0.9440 0.9440
1030.434837 0.9440 0.9440 0.9440 0.9440 0.9440
1034.782663 0.9420 0.9410 0.9400 0.9370 0.9350
1039.130489 0.9350 0.9340 0.9340 0.9340 0.9340
1043.478315 0.9330 0.9330 0.9330 0.9330 0.9330
1047.826140 0.9310 0.9310 0.9310 0.9300 0.9270
1052.173966 0.9260 0.9250 0.9250 0.9250 0.9230
1056.521792 0.9220 0.9190 0.9150 0.9140 0.9100
1060.869618 0.9050 0.9040 0.9010 0.8950 0.8920
1065.217444 0.8890 0.8850 0.8760 0.8591 0.8550
1069.565270 0.8550 0.8580 0.8610 0.8630 0.8650
1073.913096 0.8710 0.8740 0.8770 0.8800 0.8810
1078.260921 0.8840 0.8850 0.8890 0.8890 0.8910
1082.608747 0.8910 0.8920 0.8930 0.8960 0.8970
1086.956573 0.9000 0.9040 0.9070 0.9100 0.9150
1091.304399 0.9180 0.9190 0.9220 0.9220 0.9230
1095.652225 0.9230 0.9230 0.9250 0.9250 0.9250
1100.000051 0.9250 0.9270 0.9270 0.9260 0.9250
1104.347876 0.9250 0.9250 0.9250 0.9250 0.9250
1108.695702 0.9260 0.9260 0.9250 0.9220 0.9190
1113.043528 0.9190 0.9190 0.9190 0.9180 0.9160
1117.391354 0.9150 0.9140 0.9120 0.9110 0.9110
1121.739180 0.9110 0.9110 0.9110 0.9120 0.9120
1126.087006 0.9140 0.9160 0.9190 0.9190 0.9190
1130.434831 0.9190 0.9190 0.9190 0.9190 0.9200
1134.782657 0.9200 0.9200 0.9200 0.9200 0.9190
1139.130483 0.9190 0.9180 0.9180 0.9160 0.9160
1143.478309 0.9160 0.9180 0.9190 0.9220 0.9230
1147.826135 0.9230 0.9230 0.9250 0.9260 0.9290
1152.173961 0.9310 0.9310 0.9330 0.9330 0.9330
1156.521787 0.9340 0.9340 0.9340 0.9340 0.9340
1160.869612 0.9340 0.9330 0.9330 0.9330 0.9330
1165.217438 0.9310 0.9310 0.9300 0.9300 0.9300
1169.565264 0.9290 0.9300 0.9300 0.9290 0.9290
1173.913090 0.9290 0.9290 0.9290 0.9270 0.9270
1178.260916 0.9260 0.9250 0.9250 0.9230 0.9230
1182.608742 0.9230 0.9250 0.9250 0.9270 0.9300
1186.956567 0.9310 0.9340 0.9370 0.9370 0.9370
1191.304393 0.9370 0.9370 0.9370 0.9350 0.9340
1195.652219 0.9340 0.9340 0.9370 0.9380 0.9410
1200.000045 0.9410 0.9420 0.9420 0.9420 0.9420
1204.347871 0.9420 0.9420 0.9420 0.9420 0.9420
1208.695697 0.9420 0.9410 0.9400 0.9370 0.9340
1213.043522 0.9340 0.9330 0.9330 0.9330 0.9330
1217.391348 0.9330 0.9330 0.9310 0.9300 0.9290
1221.739174 0.9270 0.9270 0.9260 0.9230 0.9220
1226.087000 0.9190 0.9140 0.9110 0.9070 0.9070
1230.434826 0.8990 0.8970 0.8920 0.8910 0.8801
1234.782652 0.8700 0.8690 0.8630 0.8580 0.8510
1239.130478 0.8480 0.8430 0.8360 0.8221 0.8140
1243.478303 0.8100 0.8100 0.8090 0.8090 0.8100
1247.826129 0.8100 0.8100 0.8130 0.8140 0.8160
1252.173955 0.8220 0.8280 0.8290 0.8330 0.8370
1256.521781 0.8410 0.8440 0.8460 0.8480 0.8510
1260.869607 0.8590 0.8620 0.8620 0.8630 0.8690
1265.217433 0.8730 0.8740 0.8770 0.8780 0.8800
1269.565258 0.8810 0.8810 0.8820 0.8840 0.8860
1273.913084 0.8880 0.8880 0.8880 0.8910 0.8920
1278.260910 0.8970 0.8990 0.8990 0.8990 0.8990
1282.608736 0.8990 0.8970 0.8970 0.8970 0.8990
1286.956562 0.9010 0.9010 0.9010 0.9010 0.9010
1291.304388 0.9030 0.9030 0.9030 0.9010 0.9010
1295.652213 0.9010 0.9010 0.9030 0.9070 0.9080
1300.000039 0.9080 0.9110 0.9110 0.9100 0.9100
1304.347865 0.9100 0.9070 0.9050 0.9040 0.9030
1308.695691 0.9010 0.9010 0.9000 0.8970 0.8930
1313.043517 0.8910 0.8850 0.8780 0.8700 0.8610
1317.391343 0.8440 0.8111 0.7751 0.7750 0.7939
1321.739169 0.8260 0.8390 0.8540 0.8840 0.8990
1326.086994 0.9050 0.9070 0.9080 0.9100 0.9150
1330.434820 0.9180 0.9200 0.9290 0.9330 0.9370
1334.782646 0.9380 0.9410 0.9420 0.9450 0.9480
1339.130472 0.9500 0.9530 0.9520 0.9530 0.9550
1343.478298 0.9560 0.9560 0.9560 0.9550 0.9550
1347.826124 0.9530 0.9530 0.9520 0.9480 0.9450
1352.173949 0.9450 0.9460 0.9480 0.9530 0.9570
1356.521775 0.9590 0.9590 0.9570 0.9570 0.9600
1360.869601 0.9630 0.9680 0.9700 0.9700 0.9650
1365.217427 0.9640 0.9600 0.9570 0.9560 0.9530
1369.565253 0.9460 0.9330 0.9300 0.9250 0.9200
1373.913079 0.9160 0.9120 0.9010 0.8920 0.8780
1378.260904 0.8630 0.8480 0.8460 0.8470 0.8500
1382.608730 0.8560 0.8660 0.8800 0.9119 0.9230
1386.956556 0.9250 0.9250 0.9290 0.9300 0.9310
1391.304382 0.9300 0.9300 0.9290 0.9300 0.9340
1395.652208 0.9400 0.9410 0.9440 0.9460 0.9480
1400.000034 0.9490 0.9490 0.9480 0.9460 0.9440
1404.347860 0.9440 0.9420 0.9410 0.9380 0.9350
1408.695685 0.9310 0.9310 0.9300 0.9290 0.9220
1413.043511 0.9160 0.9110 0.9100 0.9100 0.9030
1417.391337 0.9000 0.8970 0.8930 0.8920 0.8890
1421.739163 0.8810 0.8730 0.8690 0.8630 0.8610
1426.086989 0.8520 0.8480 0.8350 0.8290 0.8260
1430.434815 0.8140 0.8030 0.7940 0.7910 0.7820
1434.782640 0.7680 0.7560 0.7460 0.7380 0.7240
1439.130466 0.7200 0.7130 0.7130 0.7239 0.7310
1443.478292 0.7370 0.7390 0.7410 0.7380 0.7350
1447.826118 0.7340 0.7310 0.7220 0.7091 0.7000
1452.173944 0.6890 0.6750 0.6590 0.6430 0.6370
1456.521770 0.6370 0.6410 0.6559 0.6630 0.6670
1460.869596 0.6670 0.6630 0.6320 0.6130 0.5831
1465.217421 0.5680 0.5680 0.6427 0.6818 0.6919
1469.565247 0.7070 0.7390 0.7570 0.7730 0.7830
1473.913073 0.8129 0.8319 0.8370 0.8410 0.8440
1478.260899 0.8520 0.8550 0.8580 0.8590 0.8610
1482.608725 0.8620 0.8620 0.8620 0.8610 0.8590
1486.956551 0.8590 0.8590 0.8590 0.8590 0.8580
1491.304376 0.8560 0.8550 0.8520 0.8480 0.8430
1495.652202 0.8430 0.8410 0.8390 0.8330 0.8320
1500.000028 0.8310 0.8240 0.8170 0.8100 0.8060
1504.347854 0.7980 0.7940 0.7920 0.7910 0.7830
1508.695680 0.7730 0.7670 0.7610 0.7560 0.7500
1513.043506 0.7450 0.7390 0.7310 0.7270 0.7220
1517.391331 0.7070 0.6980 0.6970 0.6900 0.6830
1521.739157 0.6730 0.6530 0.6440 0.6440 0.6490
1526.086983 0.6530 0.6620 0.6660 0.6660 0.6630
1530.434809 0.6600 0.6580 0.6510 0.6450 0.6320
1534.782635 0.6280 0.6150 0.6070 0.5980 0.5851
1539.130461 0.5830 0.5690 0.5580 0.5460 0.5380
1543.478287 0.5340 0.5270 0.5210 0.5100 0.5050
1547.826112 0.5040 0.5020 0.5010 0.5010 0.5000
1552.173938 0.4980 0.4980 0.4980 0.5000 0.5080
1556.521764 0.5100 0.5120 0.5240 0.5539 0.5700
1560.869590 0.5720 0.5720 0.5720 0.5730 0.5770
1565.217416 0.5870 0.6040 0.6150 0.6180 0.6280
1569.565242 0.6430 0.6580 0.6620 0.6630 0.6630
1573.913067 0.6670 0.6730 0.6770 0.6890 0.6920
1578.260893 0.6880 0.6880 0.6890 0.6900 0.6920
1582.608719 0.6920 0.6940 0.6960 0.6980 0.7010
1586.956545 0.7050 0.7090 0.7160 0.7240 0.7270
1591.304371 0.7370 0.7450 0.7470 0.7540 0.7600
1595.652197 0.7720 0.7840 0.7910 0.7950 0.8099
1600.000022 0.8160 0.8290 0.8400 0.8470 0.8520
1604.347848 0.8690 0.8710 0.8770 0.8889 0.8950
1608.695674 0.8990 0.9070 0.9110 0.9150 0.9230
1613.043500 0.9230 0.9250 0.9310 0.9380 0.9479
1617.391326 0.9490 0.9490 0.9490 0.9520 0.9560
1621.739152 0.9650 0.9670 0.9700 0.9710 0.9720
1626.086978 0.9720 0.9720 0.9740 0.9750 0.9760
1630.434803 0.9780 0.9780 0.9820 0.9860 0.9890
1634.782629 0.9910 0.9980 0.9980 0.9930 0.9930
1639.130455 0.9930 0.9940 0.9970 1.0000 1.0000
1643.478281 1.0000 1.0000 1.0140 1.0140 1.0060
1647.826107 1.0040 1.0010 1.0020 1.0050 1.0060
1652.173933 1.0080 1.0060 1.0040 1.0010 0.9980
1656.521758 0.9970 0.9900 0.9890 0.9870 0.9900
1660.869584 0.9910 0.9910 0.9900 0.9870 0.9860
1665.217410 0.9830 0.9830 0.9850 0.9860 0.9890
1669.565236 0.9890 0.9860 0.9850 0.9830 0.9830
1673.913062 0.9830 0.9800 0.9780 0.9760 0.9760
1678.260888 0.9780 0.9800 0.9830 0.9860 0.9860
1682.608713 0.9860 0.9830 0.9820 0.9780 0.9760
1686.956539 0.9800 0.9800 0.9800 0.9820 0.9820
1691.304365 0.9760 0.9740 0.9760 0.9780 0.9790
1695.652191 0.9790 0.9800 0.9790 0.9790 0.9780
1700.000017 0.9780 0.9760 0.9750 0.9760 0.9760
1704.347843 0.9750 0.9750 0.9710 0.9680 0.9680
1708.695669 0.9680 0.9720 0.9710 0.9680 0.9650
1713.043494 0.9640 0.9650 0.9700 0.9700 0.9680
1717.391320 0.9670 0.9650 0.9610 0.9560 0.9560
1721.739146 0.9560 0.9610 0.9610 0.9550 0.9490
1726.086972 0.9490 0.9550 0.9550 0.9560 0.9560
1730.434798 0.9570 0.9560 0.9560 0.9560 0.9550
1734.782624 0.9530 0.9490 0.9480 0.9550 0.9560
1739.130449 0.9570 0.9500 0.9500 0.9530 0.9560
1743.478275 0.9560 0.9560 0.9560 0.9560 0.9600
1747.826101 0.9650 0.9650 0.9670 0.9710 0.9700
1752.173927 0.9640 0.9610 0.9630 0.9670 0.9760
1756.521753 0.9780 0.9780 0.9780 0.9780 0.9780
1760.869579 0.9820 0.9820 0.9760 0.9760 0.9800
1765.217404 0.9820 0.9800 0.9780 0.9760 0.9740
1769.565230 0.9740 0.9890 0.9890 0.9870 0.9830
1773.913056 0.9820 0.9800 0.9790 0.9780 0.9760
1778.260882 0.9760 0.9760 0.9830 0.9820 0.9820
1782.608708 0.9820 0.9820 0.9830 0.9800 0.9800
1786.956534 0.9800 0.9800 0.9830 0.9830 0.9820
1791.304360 0.9820 0.9820 0.9820 0.9820 0.9820
1795.652185 0.9820 0.9820 0.9820 0.9800 0.9800
1800.000011 0.9820 0.9800 0.9790 0.9780 0.9780
1804.347837 0.9780 0.9780 0.9820 0.9800 0.9800
1808.695663 0.9800 0.9780 0.9760 0.9760 0.9760
1813.043489 0.9780 0.9790 0.9800 0.9800 0.9800
1817.391315 0.9790 0.9790 0.9790 0.9780 0.9760
1821.739140 0.9760 0.9750 0.9750 0.9760 0.9760
1826.086966 0.9740 0.9740 0.9780 0.9790 0.9800
1830.434792 0.9800 0.9780 0.9780 0.9760 0.9750
1834.782618 0.9750 0.9750 0.9780 0.9780 0.9740
1839.130444 0.9720 0.9720 0.9710 0.9720 0.9819
1843.478270 0.9850 0.9820 0.9750 0.9740 0.9740
1847.826096 0.9740 0.9780 0.9780 0.9760 0.9760
1852.173921 0.9760 0.9760 0.9750 0.9750 0.9680
1856.521747 0.9680 0.9720 0.9720 0.9720 0.9700
1860.869573 0.9680 0.9750 0.9750 0.9740 0.9710
1865.217399 0.9700 0.9700 0.9740 0.9750 0.9780
1869.565225 0.9780 0.9760 0.9760 0.9760 0.9750
1873.913051 0.9740 0.9740 0.9750 0.9800 0.9760
1878.260876 0.9760 0.9760 0.9760 0.9790 0.9800
1882.608702 0.9790 0.9790 0.9780 0.9760 0.9760
1886.956528 0.9780 0.9790 0.9790 0.9790 0.9780
1891.304354 0.9780 0.9780 0.9790 0.9790 0.9780
1895.652180 0.9780 0.9780 0.9780 0.9780 0.9790
1900.000006 0.9800 0.9820 0.9850 0.9850 0.9830
1904.347831 0.9800 0.9780 0.9800 0.9820 0.9820
1908.695657 0.9830 0.9850 0.9850 0.9800 0.9800
1913.043483 0.9830 0.9820 0.9820 0.9820 0.9820
1917.391309 0.9850 0.9850 0.9860 0.9820 0.9870
1921.739135 0.9910 0.9890 0.9850 0.9830 0.9830
1926.086961 0.9820 0.9820 0.9820 0.9820 0.9830
1930.434787 0.9850 0.9830 0.9830 0.9830 0.9830
1934.782612 0.9850 0.9860 0.9870 0.9870 0.9850
1939.130438 0.9850 0.9850 0.9830 0.9850 0.9850
1943.478264 0.9850 0.9850 0.9830 0.9820 0.9780
1947.826090 0.9780 0.9800 0.9910 0.9930 0.9870
1952.173916 0.9850 0.9830 0.9820 0.9820 0.9800
1956.521742 0.9800 0.9780 0.9820 0.9870 0.9970
1960.869567 1.0050 0.9930 0.9900 0.9860 0.9800
1965.217393 0.9800 0.9780 0.9800 0.9830 0.9830
1969.565219 0.9830 0.9820 0.9820 0.9820 0.9800
1973.913045 0.9790 0.9780 0.9780 0.9780 0.9820
1978.260871 0.9830 0.9830 0.9790 0.9760 0.9760
1982.608697 0.9790 0.9800 0.9820 0.9800 0.9790
1986.956522 0.9790 0.9790 0.9790 0.9830 0.9830
1991.304348 0.9800 0.9790 0.9790 0.9790 0.9790
1995.652174 0.9800 0.9800 0.9720 0.9720 0.9720
2000.000000 0.9710 0.9710 0.9710 0.9710 0.9710
2004.347826 0.9710 0.9710 0.9710 0.9710 0.9710
2008.695652 0.9710 0.9715 0.9720 0.9730 0.9740
2013.043478 0.9745 0.9750 0.9750 0.9750 0.9750
2017.391303 0.9750 0.9750 0.9750 0.9730 0.9710
2021.739129 0.9710 0.9710 0.9725 0.9740 0.9765
2026.086955 0.9790 0.9805 0.9820 0.9820 0.9820
2030.434781 0.9790 0.9760 0.9760 0.9760 0.9740
2034.782607 0.9720 0.9720 0.9720 0.9740 0.9760
2039.130433 0.9760 0.9760 0.9750 0.9740 0.9740
2043.478258 0.9740 0.9745 0.9750 0.9750 0.9750
2047.826084 0.9750 0.9750 0.9750 0.9750 0.9750
2052.173910 0.9750 0.9750 0.9750 0.9750 0.9750
2056.521736 0.9755 0.9760 0.9760 0.9760 0.9770
2060.869562 0.9780 0.9780 0.9780 0.9780 0.9780
2065.217388 0.9780 0.9780 0.9780 0.9780 0.9785
2069.565213 0.9790 0.9790 0.9790 0.9785 0.9780
2073.913039 0.9780 0.9780 0.9780 0.9780 0.9780
2078.260865 0.9780 0.9770 0.9760 0.9755 0.9750
2082.608691 0.9745 0.9740 0.9730 0.9720 0.9715
2086.956517 0.9710 0.9705 0.9700 0.9700 0.9700
2091.304343 0.9690 0.9680 0.9675 0.9670 0.9660
2095.652169 0.9650 0.9645 0.9640 0.9625 0.9610
2099.999994 0.9600 0.9590 0.9575 0.9560 0.9540
2104.347820 0.9520 0.9490 0.9460 0.9420 0.9380
2108.695646 0.9340 0.9300 0.9221 0.9141 0.9076
2113.043472 0.9011 0.8951 0.8891 0.8776 0.8662
2117.391298 0.8552 0.8442 0.8293 0.8143 0.7937
2121.739124 0.7730 0.7555 0.7380 0.7380 0.7380
2126.086949 0.7733 0.8088 0.8463 0.8837 0.9073
2130.434775 0.9308 0.9374 0.9439 0.9494 0.9549
2134.782601 0.9575 0.9600 0.9605 0.9610 0.9625
2139.130427 0.9640 0.9640 0.9640 0.9635 0.9630
2143.478253 0.9630 0.9630 0.9620 0.9610 0.9610
2147.826079 0.9610 0.9610 0.9610 0.9610 0.9610
2152.173904 0.9600 0.9590 0.9570 0.9550 0.9500
2156.521730 0.9450 0.9410 0.9370 0.9350 0.9330
2160.869556 0.9330 0.9330 0.9395 0.9459 0.9549
2165.217382 0.9639 0.9655 0.9670 0.9685 0.9700
2169.565208 0.9705 0.9710 0.9725 0.9740 0.9745
2173.913034 0.9750 0.9750 0.9750 0.9750 0.9750
2178.260860 0.9750 0.9750 0.9755 0.9760 0.9770
2182.608685 0.9780 0.9780 0.9780 0.9780 0.9780
2186.956511 0.9780 0.9780 0.9780 0.9780 0.9785
2191.304337 0.9790 0.9795 0.9800 0.9795 0.9790
2195.652163 0.9790 0.9790 0.9785 0.9780 0.9780
2199.999989 0.9780 0.9770 0.9760 0.9760 0.9760
2204.347815 0.9760 0.9760 0.9760 0.9760 0.9760
2208.695640 0.9760 0.9760 0.9760 0.9750 0.9740
2213.043466 0.9745 0.9750 0.9755 0.9760 0.9755
2217.391292 0.9750 0.9745 0.9740 0.9740 0.9740
2221.739118 0.9745 0.9750 0.9750 0.9750 0.9755
2226.086944 0.9760 0.9760 0.9760 0.9755 0.9750
2230.434770 0.9750 0.9750 0.9750 0.9750 0.9750
2234.782596 0.9750 0.9750 0.9750 0.9750 0.9750
2239.130421 0.9755 0.9760 0.9750 0.9740 0.9730
2243.478247 0.9720 0.9720 0.9720 0.9720 0.9720
2247.826073 0.9720 0.9720 0.9735 0.9750 0.9750
2252.173899 0.9750 0.9750 0.9750 0.9750 0.9750
2256.521725 0.9750 0.9750 0.9745 0.9740 0.9730
2260.869551 0.9720 0.9710 0.9700 0.9685 0.9670
2265.217376 0.9660 0.9650 0.9645 0.9640 0.9640
2269.565202 0.9640 0.9635 0.9630 0.9620 0.9610
2273.913028 0.9605 0.9600 0.9585 0.9570 0.9565
2278.260854 0.9560 0.9560 0.9560 0.9560 0.9560
2282.608680 0.9560 0.9560 0.9565 0.9570 0.9570
2286.956506 0.9570 0.9580 0.9590 0.9590 0.9590
2291.304331 0.9575 0.9560 0.9560 0.9560 0.9560
2295.652157 0.9560 0.9560 0.9560 0.9555 0.9550
2299.999983 0.9570 0.9590 0.9590 0.9590 0.9560
2304.347809 0.9530 0.9530 0.9530 0.9530 0.9530
2308.695635 0.9530 0.9530 0.9638 0.9748 0.9750
2313.043461 0.9750 0.9640 0.9530 0.9525 0.9520
2317.391287 0.9520 0.9520 0.9525 0.9530 0.9580
2321.739112 0.9630 0.9650 0.9670 0.9685 0.9700
2326.086938 0.9710 0.9720 0.9735 0.9750 0.9755
2330.434764 0.9760 0.9775 0.9790 0.9820 0.9850
2334.782590 0.9855 0.9860 0.9860 0.9860 0.9875
2339.130416 0.9890 0.9895 0.9900 0.9875 0.9850
2343.478242 0.9840 0.9830 0.9815 0.9800 0.9800
2347.826067 0.9800 0.9795 0.9790 0.9770 0.9750
2352.173893 0.9750 0.9750 0.9745 0.9740 0.9740
2356.521719 0.9740 0.9770 0.9800 0.9800 0.9800
2360.869545 0.9736 0.9671 0.9670 0.9670 0.9725
2365.217371 0.9780 0.9785 0.9790 0.9810 0.9830
2369.565197 0.9825 0.9820 0.9810 0.9800 0.9795
2373.913022 0.9790 0.9785 0.9780 0.9731 0.9681
2378.260848 0.9655 0.9630 0.9620 0.9610 0.9620
2382.608674 0.9630 0.9675 0.9720 0.9720 0.9720
2386.956500 0.9730 0.9740 0.9740 0.9740 0.9745
2391.304326 0.9750 0.9755 0.9760 0.9770 0.9780
2395.652152 0.9780 0.9780 0.9765 0.9750 0.9745
2399.999978 0.9740 0.9730 0.9720 0.9730 0.9740
2404.347803 0.9745 0.9750 0.9755 0.9760 0.9770
2408.695629 0.9780 0.9780 0.9780 0.9770 0.9760
2413.043455 0.9760 0.9760 0.9760 0.9760 0.9760
2417.391281 0.9760 0.9760 0.9760 0.9770 0.9780
2421.739107 0.9780 0.9780 0.9780 0.9780 0.9780
2426.086933 0.9780 0.9785 0.9790 0.9795 0.9800
2430.434758 0.9800 0.9800 0.9790 0.9780 0.9770
2434.782584 0.9760 0.9755 0.9750 0.9745 0.9740
2439.130410 0.9725 0.9710 0.9705 0.9700 0.9700
2443.478236 0.9700 0.9705 0.9710 0.9725 0.9740
2447.826062 0.9750 0.9760 0.9770 0.9780 0.9780
2452.173888 0.9780 0.9780 0.9780 0.9780 0.9780
2456.521713 0.9785 0.9790 0.9790 0.9790 0.9785
2460.869539 0.9780 0.9780 0.9780 0.9780 0.9780
2465.217365 0.9780 0.9780 0.9780 0.9780 0.9780
2469.565191 0.9780 0.9780 0.9780 0.9780 0.9780
2473.913017 0.9785 0.9790 0.9795 0.9800 0.9800
2478.260843 0.9800 0.9795 0.9790 0.9790 0.9790
2482.608669 0.9785 0.9780 0.9780 0.9780 0.9780
2486.956494 0.9780 0.9790 0.9800 0.9795 0.9790
2491.304320 0.9785 0.9780 0.9770 0.9760 0.9755
2495.652146 0.9750 0.9750 0.9750 0.9745 0.9740
2499.999972 0.9740 0.9740 0.9740 0.9740 0.9730
2504.347798 0.9720 0.9720 0.9720 0.9730 0.9740
2508.695624 0.9740 0.9740 0.9750 0.9760 0.9770
2513.043449 0.9780 0.9780 0.9780 0.9780 0.9780
2517.391275 0.9780 0.9780 0.9785 0.9790 0.9795
2521.739101 0.9800 0.9800 0.9800 0.9790 0.9780
2526.086927 0.9780 0.9780 0.9780 0.9780 0.9780
2530.434753 0.9780 0.9780 0.9780 0.9780 0.9780
2534.782579 0.9780 0.9780 0.9780 0.9780 0.9785
2539.130404 0.9790 0.9795 0.9800 0.9800 0.9800
2543.478230 0.9800 0.9800 0.9800 0.9800 0.9800
2547.826056 0.9800 0.9800 0.9800 0.9780 0.9760
2552.173882 0.9760 0.9760 0.9775 0.9790 0.9795
2556.521708 0.9800 0.9815 0.9830 0.9825 0.9820
2560.869534 0.9805 0.9790 0.9775 0.9760 0.9755
2565.217360 0.9750 0.9750 0.9750 0.9750 0.9750
2569.565185 0.9770 0.9790 0.9795 0.9800 0.9800
2573.913011 0.9800 0.9795 0.9790 0.9790 0.9790
2578.260837 0.9795 0.9800 0.9800 0.9800 0.9795
2582.608663 0.9790 0.9785 0.9780 0.9780 0.9780
2586.956489 0.9780 0.9780 0.9770 0.9760 0.9755
2591.304315 0.9750 0.9755 0.9760 0.9770 0.9780
2595.652140 0.9785 0.9790 0.9790 0.9790 0.9785
2599.999966 0.9780 0.9780 0.9780 0.9765 0.9750
2604.347792 0.9750 0.9750 0.9755 0.9760 0.9750
2608.695618 0.9740 0.9705 0.9670 0.9660 0.9650
2613.043444 0.9640 0.9630 0.9590 0.9550 0.9515
2617.391270 0.9480 0.9450 0.9420 0.9420 0.9420
2621.739096 0.9484 0.9549 0.9560 0.9570 0.9600
2626.086921 0.9630 0.9670 0.9710 0.9715 0.9720
2630.434747 0.9730 0.9740 0.9745 0.9750 0.9755
2634.782573 0.9760 0.9760 0.9760 0.9770 0.9780
2639.130399 0.9785 0.9790 0.9785 0.9780 0.9780
2643.478225 0.9780 0.9780 0.9780 0.9770 0.9760
2647.826051 0.9760 0.9760 0.9750 0.9740 0.9740
2652.173876 0.9740 0.9750 0.9760 0.9760 0.9760
2656.521702 0.9770 0.9780 0.9780 0.9780 0.9780
2660.869528 0.9780 0.9780 0.9780 0.9780 0.9780
2665.217354 0.9770 0.9760 0.9760 0.9760 0.9760
2669.565180 0.9760 0.9755 0.9750 0.9735 0.9720
2673.913006 0.9720 0.9720 0.9740 0.9760 0.9755
2678.260831 0.9750 0.9735 0.9720 0.9715 0.9710
2682.608657 0.9710 0.9710 0.9710 0.9710 0.9710
2686.956483 0.9710 0.9710 0.9710 0.9725 0.9740
2691.304309 0.9740 0.9740 0.9740 0.9740 0.9740
2695.652135 0.9740 0.9740 0.9740 0.9740 0.9740
2699.999961 0.9740 0.9740 0.9745 0.9750 0.9755
2704.347787 0.9760 0.9755 0.9750 0.9745 0.9740
2708.695612 0.9725 0.9710 0.9690 0.9670 0.9670
2713.043438 0.9670 0.9675 0.9680 0.9680 0.9680
2717.391264 0.9695 0.9710 0.9710 0.9710 0.9695
2721.739090 0.9680 0.9675 0.9670 0.9670 0.9670
2726.086916 0.9660 0.9650 0.9650 0.9650 0.9605
2730.434742 0.9560 0.9525 0.9490 0.9490 0.9490
2734.782567 0.9485 0.9480 0.9485 0.9490 0.9510
2739.130393 0.9530 0.9540 0.9550 0.9550 0.9550
2743.478219 0.9550 0.9550 0.9540 0.9530 0.9525
2747.826045 0.9520 0.9510 0.9500 0.9500 0.9500
2752.173871 0.9515 0.9530 0.9530 0.9530 0.9540
2756.521697 0.9550 0.9555 0.9560 0.9585 0.9610
2760.869522 0.9620 0.9630 0.9630 0.9630 0.9630
2765.217348 0.9630 0.9620 0.9610 0.9600 0.9590
2769.565174 0.9575 0.9560 0.9555 0.9550 0.9540
2773.913000 0.9530 0.9530 0.9530 0.9540 0.9550
2778.260826 0.9555 0.9560 0.9560 0.9560 0.9560
2782.608652 0.9560 0.9575 0.9590 0.9590 0.9590
2786.956478 0.9590 0.9590 0.9600 0.9610 0.9610
2791.304303 0.9610 0.9605 0.9600 0.9580 0.9560
2795.652129 0.9555 0.9550 0.9550 0.9550 0.9540
2799.999955 0.9530 0.9530 0.9530 0.9525 0.9520
2804.347781 0.9505 0.9490 0.9475 0.9460 0.9460
2808.695607 0.9460 0.9455 0.9450 0.9445 0.9440
2813.043433 0.9440 0.9440 0.9430 0.9420 0.9415
2817.391258 0.9410 0.9390 0.9370 0.9340 0.9310
2821.739084 0.9270 0.9230 0.9225 0.9220 0.9205
2826.086910 0.9190 0.9170 0.9150 0.9125 0.9100
2830.434736 0.9051 0.9001 0.8966 0.8931 0.8920
2834.782562 0.8910 0.8855 0.8800 0.8750 0.8700
2839.130388 0.8640 0.8580 0.8550 0.8520 0.8441
2843.478213 0.8361 0.8286 0.8211 0.8141 0.8071
2847.826039 0.7957 0.7842 0.7761 0.7681 0.7675
2852.173865 0.7670 0.7710 0.7750 0.7775 0.7800
2856.521691 0.7820 0.7840 0.7890 0.7940 0.7955
2860.869517 0.7970 0.7960 0.7950 0.7945 0.7940
2865.217343 0.7910 0.7880 0.7875 0.7870 0.7835
2869.565169 0.7800 0.7760 0.7720 0.7605 0.7490
2873.912994 0.7430 0.7370 0.7241 0.7111 0.6773
2878.260820 0.6433 0.6089 0.5744 0.5562 0.5382
2882.608646 0.5380 0.5380 0.5705 0.6034 0.6144
2886.956472 0.6250 0.6350 0.6450 0.6594 0.6739
2891.304298 0.6894 0.7049 0.7060 0.7070 0.7070
2895.652124 0.7070 0.7070 0.7070 0.7095 0.7120
2899.999949 0.7174 0.7229 0.7328 0.7428 0.7430
2904.347775 0.7430 0.7410 0.7390 0.7350 0.7310
2908.695601 0.7270 0.7230 0.7126 0.7021 0.6906
2913.043427 0.6791 0.6632 0.6472 0.6332 0.6192
2917.391253 0.6023 0.5853 0.5693 0.5533 0.5366
2921.739079 0.5200 0.5035 0.4870 0.4870 0.4870
2926.086904 0.4905 0.4940 0.5034 0.5129 0.5145
2930.434730 0.5160 0.5259 0.5359 0.5360 0.5360
2934.782556 0.5321 0.5281 0.5118 0.4953 0.4791
2939.130382 0.4630 0.4290 0.3951 0.3596 0.3241
2943.478208 0.3240 0.3240 0.3349 0.3459 0.4273
2947.826034 0.5092 0.5387 0.5677 0.5962 0.6246
2952.173860 0.6472 0.6697 0.6764 0.6829 0.6875
2956.521685 0.6920 0.6920 0.6920 0.6885 0.6850
2960.869511 0.6800 0.6750 0.6695 0.6640 0.6541
2965.217337 0.6441 0.6336 0.6231 0.6042 0.5853
2969.565163 0.5623 0.5394 0.5198 0.5003 0.4782
2973.912989 0.4560 0.4170 0.3781 0.3471 0.3161
2978.260815 0.2847 0.2532 0.2232 0.1932 0.1856
2982.608640 0.1781 0.1656 0.1531 0.1545 0.1560
2986.956466 0.1668 0.1778 0.2134 0.2494 0.2951
2991.304292 0.3410 0.3585 0.3760 0.3905 0.4049
2995.652118 0.4383 0.4718 0.5222 0.5726 0.6032
2999.999944 0.6337 0.6676 0.7016 0.7035 0.7050
3004.347770 0.7173 0.7298 0.7418 0.7538 0.7664
3008.695596 0.7790 0.7870 0.7950 0.8095 0.8239
3013.043421 0.8369 0.8499 0.8540 0.8580 0.8639
3017.391247 0.8699 0.8720 0.8740 0.8779 0.8819
3021.739073 0.8869 0.8919 0.8925 0.8930 0.8980
3026.086899 0.9030 0.9040 0.9050 0.9100 0.9150
3030.434725 0.9185 0.9220 0.9235 0.9250 0.9280
3034.782551 0.9310 0.9320 0.9330 0.9350 0.9370
3039.130376 0.9375 0.9380 0.9395 0.9410 0.9425
3043.478202 0.9440 0.9440 0.9440 0.9450 0.9460
3047.826028 0.9490 0.9520 0.9535 0.9550 0.9560
3052.173854 0.9570 0.9580 0.9590 0.9590 0.9590
3056.521680 0.9590 0.9590 0.9595 0.9600 0.9605
3060.869506 0.9610 0.9630 0.9650 0.9640 0.9630
3065.217331 0.9630 0.9630 0.9635 0.9640 0.9645
3069.565157 0.9650 0.9675 0.9700 0.9710 0.9720
3073.912983 0.9710 0.9700 0.9700 0.9700 0.9700
3078.260809 0.9700 0.9705 0.9710 0.9725 0.9740
3082.608635 0.9750 0.9760 0.9760 0.9760 0.9760
3086.956461 0.9760 0.9760 0.9760 0.9750 0.9740
3091.304287 0.9740 0.9740 0.9745 0.9750 0.9770
3095.652112 0.9790 0.9805 0.9820 0.9825 0.9830
3099.999938 0.9830 0.9830 0.9830 0.9830 0.9825
3104.347764 0.9820 0.9820 0.9820 0.9820 0.9820
3108.695590 0.9805 0.9790 0.9790 0.9790 0.9805
3113.043416 0.9820 0.9820 0.9820 0.9825 0.9830
3117.391242 0.9825 0.9820 0.9805 0.9790 0.9790
3121.739067 0.9790 0.9790 0.9790 0.9790 0.9790
3126.086893 0.9795 0.9800 0.9815 0.9830 0.9830
3130.434719 0.9830 0.9830 0.9830 0.9830 0.9830
3134.782545 0.9830 0.9830 0.9845 0.9860 0.9860
3139.130371 0.9860 0.9840 0.9820 0.9810 0.9800
3143.478197 0.9800 0.9800 0.9810 0.9820 0.9820
3147.826022 0.9820 0.9825 0.9830 0.9830 0.9830
3152.173848 0.9840 0.9850 0.9850 0.9850 0.9850
3156.521674 0.9850 0.9850 0.9850 0.9850 0.9850
3160.869500 0.9850 0.9850 0.9850 0.9850 0.9855
3165.217326 0.9860 0.9855 0.9850 0.9850 0.9850
3169.565152 0.9840 0.9830 0.9825 0.9820 0.9820
3173.912978 0.9820 0.9805 0.9790 0.9790 0.9790
3178.260803 0.9785 0.9780 0.9770 0.9760 0.9760
3182.608629 0.9760 0.9760 0.9760 0.9760 0.9760
3186.956455 0.9760 0.9760 0.9755 0.9750 0.9730
3191.304281 0.9710 0.9705 0.9700 0.9700 0.9700
3195.652107 0.9705 0.9710 0.9725 0.9740 0.9745
3199.999933 0.9750 0.9765 0.9780 0.9780 0.9780
3204.347758 0.9770 0.9760 0.9760 0.9760 0.9755
3208.695584 0.9750 0.9750 0.9750 0.9755 0.9760
3213.043410 0.9790 0.9820 0.9820 0.9820 0.9825
3217.391236 0.9830 0.9825 0.9820 0.9810 0.9800
3221.739062 0.9800 0.9800 0.9800 0.9800 0.9800
3226.086888 0.9800 0.9800 0.9800 0.9800 0.9800
3230.434713 0.9790 0.9780 0.9780 0.9780 0.9770
3234.782539 0.9760 0.9755 0.9750 0.9750 0.9750
3239.130365 0.9750 0.9750 0.9735 0.9720 0.9715
3243.478191 0.9710 0.9695 0.9680 0.9660 0.9640
3247.826017 0.9625 0.9610 0.9600 0.9590 0.9580
3252.173843 0.9570 0.9565 0.9560 0.9555 0.9550
3256.521669 0.9550 0.9550 0.9550 0.9550 0.9535
3260.869494 0.9520 0.9480 0.9440 0.9425 0.9410
3265.217320 0.9376 0.9341 0.9335 0.9330 0.9320
3269.565146 0.9310 0.9280 0.9250 0.9240 0.9230
3273.912972 0.9215 0.9200 0.9150 0.9100 0.9055
3278.260798 0.9010 0.8961 0.8911 0.8875 0.8840
3282.608624 0.8801 0.8761 0.8735 0.8710 0.8690
3286.956449 0.8670 0.8595 0.8520 0.8455 0.8390
3291.304275 0.8246 0.8101 0.7971 0.7841 0.7741
3295.652101 0.7641 0.7403 0.7163 0.6272 0.5373
3299.999927 0.5350 0.5340 0.5330 0.5320 0.5305
3304.347753 0.5290 0.5285 0.5280 0.5275 0.5270
3308.695579 0.5141 0.5011 0.4846 0.4681 0.4264
3313.043404 0.3844 0.2900 0.1951 0.1634 0.1324
3317.391230 0.0921 0.0516 0.0372 0.0232 0.0230
3321.739056 0.0230 0.0315 0.0400 0.0430 0.0460
3326.086882 0.0505 0.0550 0.1032 0.1516 0.2016
3330.434708 0.2515 0.3193 0.3872 0.4754 0.5638
3334.782534 0.5951 0.6255 0.6467 0.6676 0.6958
3339.130360 0.7240 0.7400 0.7560 0.7735 0.7909
3343.478185 0.7950 0.7990 0.8060 0.8129 0.8194
3347.826011 0.8259 0.8314 0.8369 0.8419 0.8469
3352.173837 0.8509 0.8549 0.8584 0.8619 0.8635
3356.521663 0.8650 0.8690 0.8730 0.8775 0.8820
3360.869489 0.8850 0.8880 0.8905 0.8930 0.8940
3365.217315 0.8950 0.8995 0.9039 0.9099 0.9159
3369.565140 0.9194 0.9229 0.9250 0.9270 0.9300
3373.912966 0.9330 0.9350 0.9370 0.9385 0.9400
3378.260792 0.9425 0.9450 0.9490 0.9530 0.9550
3382.608618 0.9570 0.9570 0.9570 0.9605 0.9640
3386.956444 0.9645 0.9650 0.9650 0.9650 0.9675
3391.304270 0.9700 0.9710 0.9720 0.9735 0.9750
3395.652096 0.9755 0.9760 0.9760 0.9760 0.9770
3399.999921 0.9780 0.9785 0.9790 0.9785 0.9780
3404.347747 0.9780 0.9780 0.9780 0.9780 0.9780
3408.695573 0.9780 0.9780 0.9780 0.9785 0.9790
3413.043399 0.9790 0.9790 0.9790 0.9790 0.9795
3417.391225 0.9800 0.9800 0.9800 0.9810 0.9820
3421.739051 0.9825 0.9830 0.9840 0.9850 0.9855
3426.086876 0.9860 0.9860 0.9860 0.9840 0.9820
3430.434702 0.9800 0.9780 0.9800 0.9820 0.9820
3434.782528 0.9820 0.9825 0.9830 0.9840 0.9850
3439.130354 0.9840 0.9830 0.9825 0.9820 0.9820
3443.478180 0.9820 0.9810 0.9800 0.9795 0.9790
3447.826006 0.9795 0.9800 0.9815 0.9830 0.9840
3452.173831 0.9850 0.9850 0.9850 0.9850 0.9850
3456.521657 0.9840 0.9830 0.9825 0.9820 0.9810
3460.869483 0.9800 0.9800 0.9800 0.9790 0.9780
3465.217309 0.9770 0.9760 0.9760 0.9760 0.9770
3469.565135 0.9780 0.9815 0.9850 0.9850 0.9850
3473.912961 0.9835 0.9820 0.9800 0.9780 0.9770
3478.260787 0.9760 0.9755 0.9750 0.9745 0.9740
3482.608612 0.9740 0.9740 0.9770 0.9800 0.9825
3486.956438 0.9850 0.9835 0.9820 0.9800 0.9780
3491.304264 0.9765 0.9750 0.9730 0.9710 0.9715
3495.652090 0.9720 0.9735 0.9750 0.9750 0.9750
3499.999916 0.9750 0.9750 0.9755 0.9760 0.9755
3504.347742 0.9750 0.9745 0.9740 0.9740 0.9740
3508.695567 0.9750 0.9760 0.9755 0.9750 0.9750
3513.043393 0.9750 0.9745 0.9740 0.9730 0.9720
3517.391219 0.9735 0.9750 0.9745 0.9740 0.9730
3521.739045 0.9720 0.9720 0.9720 0.9715 0.9710
3526.086871 0.9705 0.9700 0.9705 0.9710 0.9710
3530.434697 0.9710 0.9710 0.9710 0.9710 0.9710
3534.782522 0.9715 0.9720 0.9730 0.9740 0.9745
3539.130348 0.9750 0.9750 0.9750 0.9755 0.9760
3543.478174 0.9740 0.9720 0.9710 0.9700 0.9705
3547.826000 0.9710 0.9730 0.9750 0.9750 0.9750
3552.173826 0.9755 0.9760 0.9760 0.9760 0.9760
3556.521652 0.9760 0.9755 0.9750 0.9745 0.9740
3560.869478 0.9730 0.9720 0.9715 0.9710 0.9705
3565.217303 0.9700 0.9690 0.9680 0.9690 0.9700
3569.565129 0.9720 0.9740 0.9740 0.9740 0.9730
3573.912955 0.9720 0.9720 0.9720 0.9720 0.9720
3578.260781 0.9715 0.9710 0.9730 0.9750 0.9750
3582.608607 0.9750 0.9730 0.9710 0.9705 0.9700
3586.956433 0.9685 0.9670 0.9675 0.9680 0.9700
3591.304258 0.9720 0.9750 0.9780 0.9760 0.9740
3595.652084 0.9740 0.9740 0.9750 0.9760 0.9775
3599.999910 0.9790 0.9790 0.9790 0.9790 0.9790
3604.347736 0.9785 0.9780 0.9780 0.9780 0.9770
3608.695562 0.9760 0.9760 0.9760 0.9755 0.9750
3613.043388 0.9750 0.9750 0.9750 0.9750 0.9750
3617.391213 0.9750 0.9745 0.9740 0.9745 0.9750
3621.739039 0.9755 0.9760 0.9760 0.9760 0.9730
3626.086865 0.9700 0.9700 0.9700 0.9764 0.9829
3630.434691 0.9815 0.9800 0.9790 0.9780 0.9770
3634.782517 0.9760 0.9760 0.9760 0.9760 0.9760
3639.130343 0.9750 0.9740 0.9730 0.9720 0.9715
3643.478169 0.9710 0.9705 0.9700 0.9710 0.9720
3647.825994 0.9740 0.9760 0.9775 0.9790 0.9795
3652.173820 0.9800 0.9790 0.9780 0.9780 0.9780
3656.521646 0.9780 0.9780 0.9770 0.9760 0.9755
3660.869472 0.9750 0.9735 0.9720 0.9715 0.9710
3665.217298 0.9705 0.9700 0.9700 0.9700 0.9705
3669.565124 0.9710 0.9730 0.9750 0.9765 0.9780
3673.912949 0.9780 0.9780 0.9780 0.9780 0.9780
3678.260775 0.9780 0.9770 0.9760 0.9760 0.9760
3682.608601 0.9740 0.9720 0.9710 0.9700 0.9700
3686.956427 0.9700 0.9685 0.9670 0.9670 0.9670
3691.304253 0.9660 0.9650 0.9650 0.9650 0.9645
3695.652079 0.9640 0.9640 0.9640 0.9640 0.9640
3699.999904 0.9645 0.9650 0.9650 0.9650 0.9650
3704.347730 0.9650 0.9660 0.9670 0.9675 0.9680
3708.695556 0.9680 0.9680 0.9710 0.9740 0.9740
3713.043382 0.9740 0.9745 0.9750 0.9755 0.9760
3717.391208 0.9760 0.9760 0.9770 0.9780 0.9780
3721.739034 0.9780 0.9780 0.9780 0.9780 0.9780
3726.086860 0.9780 0.9780 0.9780 0.9780 0.9780
3730.434685 0.9780 0.9780 0.9780 0.9785 0.9790
3734.782511 0.9790 0.9790 0.9795 0.9800 0.9800
3739.130337 0.9800 0.9810 0.9820 0.9825 0.9830
3743.478163 0.9830 0.9830 0.9830 0.9830 0.9825
3747.825989 0.9820 0.9820 0.9820 0.9810 0.9800
3752.173815 0.9790 0.9780 0.9780 0.9780 0.9765
3756.521640 0.9750 0.9750 0.9750 0.9750 0.9750
3760.869466 0.9745 0.9740 0.9740 0.9740 0.9745
3765.217292 0.9750 0.9750 0.9750 0.9750 0.9750
3769.565118 0.9750 0.9750 0.9750 0.9750 0.9750
3773.912944 0.9750 0.9750 0.9750 0.9750 0.9750
3778.260770 0.9750 0.9750 0.9750 0.9750 0.9745
3782.608596 0.9740 0.9740 0.9740 0.9725 0.9710
3786.956421 0.9710 0.9710 0.9705 0.9700
##END=
