##TITLE=PENTANE, 2-BROMO-
##JCAMP-DX=4.24
$$ By DXEDIT 1.05 (RS McDonald)
##DATA TYPE=INFRARED SPECTRUM
##CLASS=COBLENTZ III
##ORIGIN=DOW CHEMICAL COMPANY
##OWNER=COBLENTZ SOC.
Collection (C) 2018 copyright by the U.S. Secretary of Commerce
on behalf of the United States of America. All rights reserved.
##DATE=1958/10/28
##NAMES=2-bromopentane
##CAS REGISTRY NO=107-81-3
##MOLFORM=C5 H11 Br
##BP=76.5-76.6 C
##SOURCE REFERENCE=COBLENTZ NO. 05682
##$NIST SOURCE=COBLENTZ
##$NIST IMAGE=cob5682
##SPECTROMETER/DATA SYSTEM=DOW KBr FOREPRISM-GRATING
$$SPECTRAL CONTAMINATION DUE TO CCl4 AROUND 1550 CM^-^1
##INSTRUMENT PARAMETERS=BLAZED AT 3.5, 12.0, 20.0 MICRON AND CHANGED AT 5.0, 7.5, 14.9 MICRON
##STATE=SOLUTION (10% CCl4 FOR 3800-1390, 10% CS2 FOR 1390-450)
##PATH LENGTH=0.0109 CM, 0.0109 CM
##SAMPLING PROCEDURE=TRANSMISSION
##RESOLUTION=2
##DATA PROCESSING=DIGITIZED BY COBLENTZ SOCIETY (BATCH I) FROM HARD COPY
##XUNITS=1/CM
##YUNITS=TRANSMITTANCE
##XLABEL=Wavenumbers (cm-1)
##YLABEL=% Transmission
##XFACTOR=1
##YFACTOR=1
##DELTAX=1
##FIRSTX=3816
##LASTX=451
##FIRSTY=0.823
##MAXX=3816
##MINX=451
##MAXY=0.9051
##MINY=0.0335
##NPOINTS=3366
##XYDATA=(X++(Y..Y))
3816.000000 0.8230 0.8232 0.8234 0.8239 0.8245
3811.000000 0.8250 0.8255 0.8274 0.8294 0.8341
3806.000000 0.8388 0.8438 0.8489 0.8523 0.8557
3801.000000 0.8586 0.8616 0.8639 0.8663 0.8678
3796.000000 0.8695 0.8710 0.8725 0.8740 0.8755
3791.000000 0.8755 0.8756 0.8757 0.8758 0.8758
3786.000000 0.8759 0.8759 0.8760 0.8760 0.8760
3781.000000 0.8760 0.8759 0.8757 0.8755 0.8753
3776.000000 0.8752 0.8750 0.8748 0.8746 0.8744
3771.000000 0.8742 0.8741 0.8739 0.8737 0.8735
3766.000000 0.8733 0.8731 0.8728 0.8727 0.8725
3761.000000 0.8724 0.8721 0.8720 0.8718 0.8716
3756.000000 0.8715 0.8713 0.8712 0.8712 0.8713
3751.000000 0.8713 0.8714 0.8714 0.8715 0.8715
3746.000000 0.8715 0.8715 0.8716 0.8716 0.8717
3741.000000 0.8717 0.8718 0.8718 0.8718 0.8718
3736.000000 0.8720 0.8720 0.8720 0.8720 0.8721
3731.000000 0.8721 0.8721 0.8721 0.8723 0.8723
3726.000000 0.8724 0.8724 0.8725 0.8725 0.8725
3721.000000 0.8725 0.8725 0.8725 0.8725 0.8725
3716.000000 0.8725 0.8724 0.8724 0.8724 0.8724
3711.000000 0.8724 0.8724 0.8724 0.8724 0.8724
3706.000000 0.8724 0.8723 0.8723 0.8723 0.8723
3701.000000 0.8723 0.8723 0.8723 0.8723 0.8721
3696.000000 0.8721 0.8721 0.8721 0.8721 0.8721
3691.000000 0.8721 0.8721 0.8721 0.8721 0.8721
3686.000000 0.8721 0.8721 0.8721 0.8721 0.8721
3681.000000 0.8721 0.8721 0.8721 0.8721 0.8721
3676.000000 0.8723 0.8723 0.8724 0.8724 0.8724
3671.000000 0.8724 0.8725 0.8725 0.8725 0.8725
3666.000000 0.8727 0.8727 0.8728 0.8728 0.8728
3661.000000 0.8728 0.8728 0.8728 0.8730 0.8730
3656.000000 0.8731 0.8731 0.8732 0.8732 0.8733
3651.000000 0.8733 0.8734 0.8734 0.8735 0.8736
3646.000000 0.8737 0.8738 0.8739 0.8740 0.8741
3641.000000 0.8742 0.8743 0.8744 0.8745 0.8746
3636.000000 0.8748 0.8749 0.8750 0.8751 0.8752
3631.000000 0.8753 0.8754 0.8755 0.8756 0.8757
3626.000000 0.8758 0.8759 0.8760 0.8761 0.8763
3621.000000 0.8764 0.8765 0.8766 0.8767 0.8768
3616.000000 0.8768 0.8768 0.8770 0.8770 0.8771
3611.000000 0.8771 0.8773 0.8773 0.8774 0.8774
3606.000000 0.8775 0.8775 0.8775 0.8777 0.8778
3601.000000 0.8778 0.8778 0.8778 0.8780 0.8780
3596.000000 0.8781 0.8782 0.8783 0.8783 0.8784
3591.000000 0.8784 0.8785 0.8785 0.8786 0.8786
3586.000000 0.8787 0.8788 0.8789 0.8789 0.8790
3581.000000 0.8791 0.8793 0.8794 0.8795 0.8796
3576.000000 0.8797 0.8798 0.8800 0.8801 0.8802
3571.000000 0.8803 0.8804 0.8805 0.8806 0.8807
3566.000000 0.8809 0.8810 0.8811 0.8812 0.8813
3561.000000 0.8814 0.8815 0.8816 0.8818 0.8818
3556.000000 0.8820 0.8821 0.8821 0.8823 0.8824
3551.000000 0.8825 0.8827 0.8828 0.8828 0.8830
3546.000000 0.8831 0.8832 0.8834 0.8836 0.8838
3541.000000 0.8839 0.8841 0.8842 0.8844 0.8845
3536.000000 0.8847 0.8848 0.8850 0.8851 0.8853
3531.000000 0.8855 0.8857 0.8858 0.8860 0.8861
3526.000000 0.8863 0.8864 0.8866 0.8867 0.8868
3521.000000 0.8870 0.8871 0.8874 0.8875 0.8877
3516.000000 0.8878 0.8880 0.8882 0.8883 0.8885
3511.000000 0.8886 0.8888 0.8889 0.8891 0.8893
3506.000000 0.8895 0.8896 0.8897 0.8897 0.8898
3501.000000 0.8898 0.8898 0.8898 0.8899 0.8899
3496.000000 0.8900 0.8900 0.8900 0.8900 0.8901
3491.000000 0.8901 0.8902 0.8902 0.8902 0.8902
3486.000000 0.8903 0.8903 0.8904 0.8904 0.8904
3481.000000 0.8904 0.8905 0.8905 0.8906 0.8906
3476.000000 0.8906 0.8906 0.8907 0.8908 0.8909
3471.000000 0.8910 0.8911 0.8912 0.8913 0.8913
3466.000000 0.8914 0.8915 0.8916 0.8917 0.8918
3461.000000 0.8918 0.8920 0.8921 0.8921 0.8923
3456.000000 0.8924 0.8925 0.8925 0.8927 0.8928
3451.000000 0.8928 0.8930 0.8931 0.8932 0.8933
3446.000000 0.8934 0.8936 0.8938 0.8940 0.8942
3441.000000 0.8944 0.8947 0.8949 0.8952 0.8954
3436.000000 0.8957 0.8959 0.8962 0.8964 0.8967
3431.000000 0.8968 0.8971 0.8974 0.8977 0.8978
3426.000000 0.8982 0.8984 0.8987 0.8989 0.8992
3421.000000 0.8994 0.8997 0.8998 0.9000 0.9001
3416.000000 0.9002 0.9003 0.9005 0.9006 0.9008
3411.000000 0.9009 0.9010 0.9011 0.9013 0.9014
3406.000000 0.9016 0.9017 0.9018 0.9018 0.9021
3401.000000 0.9021 0.9024 0.9025 0.9025 0.9027
3396.000000 0.9028 0.9028 0.9027 0.9025 0.9025
3391.000000 0.9024 0.9023 0.9021 0.9020 0.9018
3386.000000 0.9018 0.9017 0.9016 0.9015 0.9014
3381.000000 0.9013 0.9012 0.9011 0.9010 0.9009
3376.000000 0.9008 0.9007 0.9006 0.9005 0.9004
3371.000000 0.9003 0.9003 0.9002 0.9001 0.9000
3366.000000 0.9000 0.8999 0.8998 0.8997 0.8997
3361.000000 0.8996 0.8995 0.8994 0.8994 0.8993
3356.000000 0.8992 0.8991 0.8991 0.8990 0.8990
3351.000000 0.8989 0.8988 0.8987 0.8987 0.8986
3346.000000 0.8985 0.8984 0.8984 0.8983 0.8982
3341.000000 0.8981 0.8980 0.8978 0.8978 0.8978
3336.000000 0.8977 0.8975 0.8975 0.8975 0.8974
3331.000000 0.8973 0.8973 0.8971 0.8971 0.8970
3326.000000 0.8970 0.8968 0.8968 0.8968 0.8968
3321.000000 0.8968 0.8968 0.8967 0.8967 0.8967
3316.000000 0.8967 0.8967 0.8967 0.8967 0.8968
3311.000000 0.8968 0.8968 0.8968 0.8968 0.8968
3306.000000 0.8968 0.8968 0.8968 0.8968 0.8968
3301.000000 0.8968 0.8968 0.8968 0.8968 0.8968
3296.000000 0.8968 0.8968 0.8968 0.8968 0.8970
3291.000000 0.8970 0.8970 0.8968 0.8968 0.8968
3286.000000 0.8967 0.8965 0.8964 0.8962 0.8961
3281.000000 0.8960 0.8959 0.8957 0.8956 0.8954
3276.000000 0.8953 0.8952 0.8951 0.8949 0.8948
3271.000000 0.8946 0.8945 0.8943 0.8941 0.8938
3266.000000 0.8936 0.8933 0.8931 0.8928 0.8927
3261.000000 0.8924 0.8921 0.8918 0.8917 0.8915
3256.000000 0.8913 0.8910 0.8908 0.8906 0.8904
3251.000000 0.8901 0.8899 0.8896 0.8894 0.8892
3246.000000 0.8890 0.8887 0.8885 0.8882 0.8880
3241.000000 0.8878 0.8875 0.8873 0.8871 0.8868
3236.000000 0.8866 0.8864 0.8862 0.8859 0.8857
3231.000000 0.8854 0.8852 0.8850 0.8848 0.8847
3226.000000 0.8846 0.8846 0.8847 0.8843 0.8840
3221.000000 0.8836 0.8833 0.8828 0.8825 0.8821
3216.000000 0.8818 0.8814 0.8811 0.8807 0.8804
3211.000000 0.8801 0.8800 0.8800 0.8801 0.8802
3206.000000 0.8803 0.8803 0.8804 0.8805 0.8806
3201.000000 0.8806 0.8807 0.8808 0.8809 0.8809
3196.000000 0.8810 0.8811 0.8812 0.8812 0.8813
3191.000000 0.8813 0.8813 0.8813 0.8813 0.8812
3186.000000 0.8812 0.8812 0.8812 0.8812 0.8812
3181.000000 0.8812 0.8812 0.8812 0.8812 0.8812
3176.000000 0.8812 0.8812 0.8812 0.8812 0.8812
3171.000000 0.8812 0.8812 0.8812 0.8812 0.8812
3166.000000 0.8812 0.8811 0.8811 0.8810 0.8810
3161.000000 0.8810 0.8810 0.8809 0.8809 0.8808
3156.000000 0.8808 0.8807 0.8807 0.8806 0.8806
3151.000000 0.8806 0.8806 0.8805 0.8805 0.8804
3146.000000 0.8804 0.8803 0.8803 0.8802 0.8802
3141.000000 0.8801 0.8801 0.8800 0.8800 0.8799
3136.000000 0.8799 0.8798 0.8798 0.8797 0.8797
3131.000000 0.8796 0.8796 0.8795 0.8795 0.8794
3126.000000 0.8794 0.8793 0.8793 0.8790 0.8788
3121.000000 0.8786 0.8784 0.8782 0.8780 0.8778
3116.000000 0.8775 0.8774 0.8771 0.8770 0.8768
3111.000000 0.8766 0.8764 0.8761 0.8759 0.8757
3106.000000 0.8755 0.8753 0.8751 0.8749 0.8747
3101.000000 0.8744 0.8741 0.8738 0.8735 0.8732
3096.000000 0.8728 0.8725 0.8723 0.8718 0.8716
3091.000000 0.8713 0.8710 0.8706 0.8721 0.8699
3086.000000 0.8696 0.8693 0.8690 0.8686 0.8683
3081.000000 0.8678 0.8675 0.8673 0.8670 0.8666
3076.000000 0.8663 0.8659 0.8656 0.8651 0.8647
3071.000000 0.8641 0.8636 0.8631 0.8625 0.8621
3066.000000 0.8617 0.8612 0.8608 0.8603 0.8599
3061.000000 0.8594 0.8590 0.8585 0.8581 0.8575
3056.000000 0.8571 0.8563 0.8555 0.8546 0.8538
3051.000000 0.8530 0.8521 0.8513 0.8505 0.8496
3046.000000 0.8488 0.8478 0.8471 0.8463 0.8455
3041.000000 0.8446 0.8438 0.8428 0.8421 0.8411
3036.000000 0.8402 0.8393 0.8384 0.8374 0.8365
3031.000000 0.8353 0.8342 0.8325 0.8310 0.8294
3026.000000 0.8278 0.8262 0.8246 0.8230 0.8214
3021.000000 0.8191 0.8168 0.8145 0.8121 0.8093
3016.000000 0.8065 0.8034 0.8003 0.7971 0.7941
3011.000000 0.7908 0.7878 0.7841 0.7804 0.7767
3006.000000 0.7730 0.7693 0.7656 0.7589 0.7521
3001.000000 0.7374 0.7225 0.7089 0.6953 0.6457
2996.000000 0.5960 0.5705 0.5449 0.5072 0.4696
2991.000000 0.4319 0.3942 0.3707 0.3473 0.3440
2986.000000 0.3407 0.3392 0.3378 0.3362 0.3349
2981.000000 0.3253 0.3158 0.2848 0.2538 0.2228
2976.000000 0.1918 0.1608 0.1298 0.0988 0.0679
2971.000000 0.0530 0.0382 0.0368 0.0335 0.0351
2966.000000 0.0345 0.0341 0.0338 0.0349 0.0361
2961.000000 0.0435 0.0509 0.0715 0.0922 0.1128
2956.000000 0.1335 0.1541 0.1748 0.1954 0.2162
2951.000000 0.2368 0.3097 0.2781 0.2988 0.3046
2946.000000 0.3104 0.3017 0.2931 0.2808 0.2685
2941.000000 0.2563 0.2441 0.2318 0.2195 0.2072
2936.000000 0.1950 0.1874 0.1791 0.1798 0.1798
2931.000000 0.1823 0.1848 0.1877 0.1907 0.1935
2926.000000 0.1966 0.1987 0.2010 0.2133 0.2256
2921.000000 0.2424 0.2592 0.2760 0.2929 0.3097
2916.000000 0.3266 0.3434 0.3602 0.3770 0.3939
2911.000000 0.4107 0.4276 0.4444 0.4612 0.4639
2906.000000 0.4667 0.4681 0.4696 0.4712 0.4729
2901.000000 0.4762 0.4798 0.4842 0.4886 0.4930
2896.000000 0.4975 0.5019 0.5136 0.5088 0.5114
2891.000000 0.5119 0.5124 0.4969 0.4815 0.4592
2886.000000 0.4369 0.4146 0.3923 0.3700 0.3477
2881.000000 0.3254 0.3031 0.2808 0.2584 0.2362
2876.000000 0.2139 0.2134 0.2143 0.2308 0.2487
2871.000000 0.2743 0.2999 0.3229 0.3459 0.3488
2866.000000 0.3516 0.3568 0.3618 0.3759 0.3900
2861.000000 0.4123 0.4346 0.4568 0.4791 0.5012
2856.000000 0.5236 0.5458 0.5681 0.5903 0.6126
2851.000000 0.6349 0.7235 0.6794 0.7017 0.7111
2846.000000 0.7208 0.7206 0.7205 0.7165 0.7126
2841.000000 0.6998 0.6869 0.6741 0.6612 0.6484
2836.000000 0.6257 0.6307 0.6260 0.6301 0.6343
2831.000000 0.6458 0.6572 0.6688 0.6804 0.6918
2826.000000 0.7034 0.7149 0.7265 0.7380 0.7495
2821.000000 0.7575 0.7657 0.7738 0.7818 0.7860
2816.000000 0.7901 0.7938 0.7975 0.8011 0.8048
2811.000000 0.8084 0.8121 0.8157 0.8194 0.8224
2806.000000 0.8254 0.8283 0.8313 0.8342 0.8371
2801.000000 0.8385 0.8399 0.8409 0.8420 0.8430
2796.000000 0.8441 0.8451 0.8462 0.8471 0.8483
2791.000000 0.8493 0.8504 0.8514 0.8525 0.8533
2786.000000 0.8541 0.8549 0.8557 0.8565 0.8573
2781.000000 0.8581 0.8589 0.8597 0.8605 0.8612
2776.000000 0.8620 0.8623 0.8625 0.8628 0.8631
2771.000000 0.8633 0.8636 0.8639 0.8642 0.8644
2766.000000 0.8620 0.8649 0.8650 0.8650 0.8649
2761.000000 0.8648 0.8647 0.8646 0.8646 0.8645
2756.000000 0.8644 0.8643 0.8642 0.8639 0.8636
2751.000000 0.8632 0.8628 0.8625 0.8621 0.8617
2746.000000 0.8613 0.8605 0.8598 0.8588 0.8578
2741.000000 0.8567 0.8557 0.8540 0.8523 0.8498
2736.000000 0.8474 0.8438 0.8402 0.8375 0.8348
2731.000000 0.8325 0.8287 0.8305 0.8305 0.8309
2726.000000 0.8314 0.8344 0.8375 0.8393 0.8411
2721.000000 0.8428 0.8448 0.8463 0.8478 0.8488
2716.000000 0.8498 0.8507 0.8516 0.8525 0.8535
2711.000000 0.8540 0.8546 0.8549 0.8553 0.8556
2706.000000 0.8560 0.8563 0.8567 0.8570 0.8574
2701.000000 0.8577 0.8581 0.8584 0.8588 0.8591
2696.000000 0.8595 0.8598 0.8602 0.8607 0.8612
2691.000000 0.8617 0.8621 0.8627 0.8632 0.8637
2686.000000 0.8642 0.8647 0.8652 0.8657 0.8662
2681.000000 0.8667 0.8671 0.8675 0.8681 0.8686
2676.000000 0.8691 0.8693 0.8694 0.8695 0.8695
2671.000000 0.8695 0.8695 0.8695 0.8696 0.8696
2666.000000 0.8697 0.8697 0.8698 0.8698 0.8699
2661.000000 0.8699 0.8700 0.8700 0.8701 0.8701
2656.000000 0.8702 0.8702 0.8703 0.8703 0.8704
2651.000000 0.8704 0.8704 0.8704 0.8704 0.8704
2646.000000 0.8704 0.8703 0.8703 0.8702 0.8702
2641.000000 0.8701 0.8700 0.8699 0.8699 0.8698
2636.000000 0.8698 0.8697 0.8696 0.8695 0.8695
2631.000000 0.8694 0.8693 0.8692 0.8692 0.8691
2626.000000 0.8691 0.8691 0.8691 0.8690 0.8690
2621.000000 0.8690 0.8690 0.8689 0.8689 0.8689
2616.000000 0.8689 0.8689 0.8689 0.8688 0.8688
2611.000000 0.8688 0.8688 0.8688 0.8688 0.8687
2606.000000 0.8687 0.8687 0.8687 0.8687 0.8687
2601.000000 0.8688 0.8689 0.8689 0.8690 0.8691
2596.000000 0.8692 0.8693 0.8694 0.8694 0.8695
2591.000000 0.8696 0.8697 0.8697 0.8698 0.8699
2586.000000 0.8700 0.8700 0.8700 0.8699 0.8699
2581.000000 0.8698 0.8698 0.8697 0.8697 0.8696
2576.000000 0.8695 0.8694 0.8694 0.8694 0.8695
2571.000000 0.8697 0.8699 0.8706 0.8714 0.8724
2566.000000 0.8734 0.8743 0.8753 0.8762 0.8771
2561.000000 0.8781 0.8791 0.8803 0.8816 0.8790
2556.000000 0.8764 0.8754 0.8745 0.8744 0.8744
2551.000000 0.8743 0.8743 0.8743 0.8744 0.8745
2546.000000 0.8747 0.8748 0.8749 0.8750 0.8752
2541.000000 0.8753 0.8754 0.8755 0.8757 0.8758
2536.000000 0.8759 0.8760 0.8762 0.8763 0.8764
2531.000000 0.8765 0.8767 0.8768 0.8768 0.8770
2526.000000 0.8771 0.8773 0.8775 0.8775 0.8777
2521.000000 0.8778 0.8780 0.8781 0.8782 0.8783
2516.000000 0.8785 0.8786 0.8787 0.8787 0.8788
2511.000000 0.8788 0.8789 0.8789 0.8789 0.8789
2506.000000 0.8790 0.8790 0.8791 0.8791 0.8791
2501.000000 0.8791 0.8792 0.8792 0.8793 0.8793
2496.000000 0.8793 0.8793 0.8794 0.8794 0.8795
2491.000000 0.8795 0.8796 0.8796 0.8796 0.8796
2486.000000 0.8797 0.8797 0.8798 0.8798 0.8798
2481.000000 0.8798 0.8799 0.8799 0.8800 0.8800
2476.000000 0.8800 0.8799 0.8799 0.8797 0.8796
2471.000000 0.8794 0.8793 0.8791 0.8790 0.8788
2466.000000 0.8787 0.8785 0.8784 0.8782 0.8781
2461.000000 0.8778 0.8778 0.8775 0.8775 0.8773
2456.000000 0.8771 0.8771 0.8770 0.8768 0.8768
2451.000000 0.8767 0.8766 0.8764 0.8763 0.8762
2446.000000 0.8761 0.8760 0.8759 0.8758 0.8757
2441.000000 0.8756 0.8755 0.8754 0.8753 0.8752
2436.000000 0.8751 0.8750 0.8749 0.8748 0.8747
2431.000000 0.8746 0.8746 0.8745 0.8744 0.8743
2426.000000 0.8743 0.8743 0.8743 0.8743 0.8743
2421.000000 0.8743 0.8743 0.8743 0.8743 0.8743
2416.000000 0.8743 0.8743 0.8743 0.8743 0.8743
2411.000000 0.8743 0.8743 0.8743 0.8743 0.8743
2406.000000 0.8743 0.8743 0.8743 0.8743 0.8743
2401.000000 0.8742 0.8742 0.8742 0.8742 0.8742
2396.000000 0.8742 0.8742 0.8742 0.8740 0.8739
2391.000000 0.8738 0.8738 0.8737 0.8737 0.8736
2386.000000 0.8736 0.8736 0.8736 0.8736 0.8736
2381.000000 0.8736 0.8737 0.8737 0.8738 0.8738
2376.000000 0.8739 0.8744 0.8749 0.8754 0.8759
2371.000000 0.8763 0.8768 0.8773 0.8778 0.8785
2366.000000 0.8791 0.8797 0.8803 0.8809 0.8816
2361.000000 0.8818 0.8823 0.8823 0.8824 0.8824
2356.000000 0.8825 0.8825 0.8825 0.8824 0.8824
2351.000000 0.8806 0.8788 0.8770 0.8752 0.8734
2346.000000 0.8716 0.8715 0.8715 0.8721 0.8730
2341.000000 0.8734 0.8738 0.8742 0.8747 0.8748
2336.000000 0.8748 0.8748 0.8746 0.8744 0.8743
2331.000000 0.8741 0.8739 0.8727 0.8716 0.8698
2326.000000 0.8680 0.8649 0.8618 0.8608 0.8598
2321.000000 0.8587 0.8575 0.8575 0.8575 0.8577
2316.000000 0.8580 0.8582 0.8585 0.8587 0.8590
2311.000000 0.8592 0.8595 0.8598 0.8601 0.8604
2306.000000 0.8607 0.8610 0.8614 0.8617 0.8621
2301.000000 0.8620 0.8618 0.8615 0.8611 0.8607
2296.000000 0.8603 0.8598 0.8594 0.8589 0.8585
2291.000000 0.8578 0.8571 0.8564 0.8557 0.8551
2286.000000 0.8546 0.8542 0.8543 0.8544 0.8549
2281.000000 0.8554 0.8559 0.8563 0.8568 0.8571
2276.000000 0.8577 0.8581 0.8586 0.8590 0.8595
2271.000000 0.8599 0.8604 0.8608 0.8613 0.8617
2266.000000 0.8621 0.8625 0.8631 0.8635 0.8640
2261.000000 0.8643 0.8647 0.8650 0.8653 0.8656
2256.000000 0.8659 0.8662 0.8665 0.8668 0.8671
2251.000000 0.8674 0.8678 0.8681 0.8684 0.8687
2246.000000 0.8690 0.8693 0.8696 0.8699 0.8702
2241.000000 0.8705 0.8708 0.8710 0.8712 0.8714
2236.000000 0.8716 0.8718 0.8720 0.8721 0.8724
2231.000000 0.8725 0.8728 0.8730 0.8732 0.8734
2226.000000 0.8736 0.8738 0.8740 0.8742 0.8744
2221.000000 0.8746 0.8748 0.8750 0.8752 0.8753
2216.000000 0.8755 0.8756 0.8757 0.8758 0.8760
2211.000000 0.8761 0.8763 0.8764 0.8766 0.8767
2206.000000 0.8768 0.8768 0.8771 0.8771 0.8774
2201.000000 0.8775 0.8775 0.8777 0.8778 0.8780
2196.000000 0.8782 0.8783 0.8784 0.8785 0.8787
2191.000000 0.8788 0.8789 0.8790 0.8792 0.8793
2186.000000 0.8794 0.8795 0.8796 0.8797 0.8799
2181.000000 0.8800 0.8812 0.8802 0.8804 0.8805
2176.000000 0.8806 0.8807 0.8809 0.8810 0.8811
2171.000000 0.8811 0.8812 0.8812 0.8813 0.8813
2166.000000 0.8814 0.8814 0.8815 0.8815 0.8816
2161.000000 0.8816 0.8816 0.8816 0.8817 0.8817
2156.000000 0.8818 0.8818 0.8818 0.8818 0.8820
2151.000000 0.8820 0.8821 0.8821 0.8821 0.8821
2146.000000 0.8821 0.8821 0.8823 0.8823 0.8824
2141.000000 0.8824 0.8825 0.8825 0.8825 0.8825
2136.000000 0.8825 0.8825 0.8825 0.8825 0.8827
2131.000000 0.8827 0.8827 0.8827 0.8828 0.8828
2126.000000 0.8828 0.8828 0.8828 0.8828 0.8828
2121.000000 0.8828 0.8830 0.8830 0.8830 0.8830
2116.000000 0.8831 0.8831 0.8831 0.8831 0.8832
2111.000000 0.8832 0.8833 0.8833 0.8834 0.8834
2106.000000 0.8835 0.8835 0.8836 0.8836 0.8837
2101.000000 0.8837 0.8838 0.8838 0.8839 0.8839
2096.000000 0.8840 0.8840 0.8841 0.8841 0.8842
2091.000000 0.8842 0.8843 0.8843 0.8844 0.8844
2086.000000 0.8844 0.8844 0.8845 0.8845 0.8846
2081.000000 0.8846 0.8847 0.8847 0.8847 0.8847
2076.000000 0.8847 0.8847 0.8847 0.8845 0.8843
2071.000000 0.8841 0.8839 0.8837 0.8836 0.8834
2066.000000 0.8832 0.8830 0.8828 0.8827 0.8825
2061.000000 0.8821 0.8820 0.8818 0.8816 0.8814
2056.000000 0.8814 0.8814 0.8816 0.8817 0.8818
2051.000000 0.8820 0.8821 0.8823 0.8825 0.8825
2046.000000 0.8828 0.8828 0.8831 0.8832 0.8834
2041.000000 0.8835 0.8836 0.8837 0.8838 0.8839
2036.000000 0.8840 0.8840 0.8841 0.8842 0.8843
2031.000000 0.8844 0.8845 0.8846 0.8846 0.8846
2026.000000 0.8845 0.8844 0.8843 0.8841 0.8840
2021.000000 0.8839 0.8838 0.8836 0.8835 0.8833
2016.000000 0.8832 0.8828 0.8827 0.8824 0.8821
2011.000000 0.8818 0.8816 0.8809 0.8803 0.8796
2006.000000 0.8789 0.8765 0.8741 0.8689 0.8638
2001.000000 0.8534 0.8430 0.8325 0.8306 0.8320
1996.000000 0.8377 0.8435 0.8492 0.8550 0.8608
1991.000000 0.8665 0.8723 0.8761 0.8760 0.8758
1986.000000 0.8757 0.8755 0.8754 0.8752 0.8750
1981.000000 0.8749 0.8747 0.8746 0.8744 0.8743
1976.000000 0.8742 0.8742 0.8741 0.8740 0.8739
1971.000000 0.8738 0.8737 0.8737 0.8738 0.8739
1966.000000 0.8741 0.8743 0.8745 0.8749 0.8753
1961.000000 0.8756 0.8760 0.8764 0.8768 0.8771
1956.000000 0.8775 0.8780 0.8783 0.8785 0.8787
1951.000000 0.8789 0.8791 0.8793 0.8795 0.8797
1946.000000 0.8797 0.8794 0.8791 0.8788 0.8785
1941.000000 0.8781 0.8778 0.8775 0.8775 0.8773
1936.000000 0.8771 0.8771 0.8768 0.8768 0.8766
1931.000000 0.8765 0.8764 0.8762 0.8761 0.8759
1926.000000 0.8758 0.8757 0.8756 0.8755 0.8754
1921.000000 0.8752 0.8751 0.8750 0.8749 0.8748
1916.000000 0.8747 0.8746 0.8745 0.8744 0.8743
1911.000000 0.8741 0.8740 0.8739 0.8738 0.8737
1906.000000 0.8736 0.8735 0.8734 0.8734 0.8734
1901.000000 0.8735 0.8736 0.8737 0.8738 0.8738
1896.000000 0.8739 0.8740 0.8741 0.8742 0.8742
1891.000000 0.8743 0.8744 0.8745 0.8746 0.8747
1886.000000 0.8748 0.8749 0.8749 0.8748 0.8746
1881.000000 0.8745 0.8744 0.8743 0.8741 0.8740
1876.000000 0.8740 0.8740 0.8741 0.8742 0.8743
1871.000000 0.8743 0.8744 0.8744 0.8745 0.8745
1866.000000 0.8744 0.8742 0.8741 0.8740 0.8739
1861.000000 0.8738 0.8735 0.8733 0.8732 0.8732
1856.000000 0.8733 0.8733 0.8734 0.8734 0.8734
1851.000000 0.8734 0.8734 0.8734 0.8734 0.8734
1846.000000 0.8734 0.8734 0.8734 0.8734 0.8734
1841.000000 0.8734 0.8734 0.8734 0.8734 0.8733
1836.000000 0.8732 0.8731 0.8730 0.8730 0.8728
1831.000000 0.8728 0.8727 0.8725 0.8725 0.8725
1826.000000 0.8724 0.8723 0.8721 0.8721 0.8721
1821.000000 0.8720 0.8718 0.8718 0.8717 0.8716
1816.000000 0.8715 0.8714 0.8713 0.8712 0.8711
1811.000000 0.8710 0.8709 0.8709 0.8709 0.8711
1806.000000 0.8713 0.8714 0.8716 0.8717 0.8718
1801.000000 0.8721 0.8721 0.8724 0.8725 0.8727
1796.000000 0.8728 0.8728 0.8728 0.8728 0.8728
1791.000000 0.8730 0.8730 0.8730 0.8730 0.8730
1786.000000 0.8731 0.8731 0.8731 0.8731 0.8731
1781.000000 0.8732 0.8733 0.8734 0.8735 0.8735
1776.000000 0.8736 0.8737 0.8738 0.8739 0.8740
1771.000000 0.8741 0.8742 0.8743 0.8744 0.8745
1766.000000 0.8746 0.8747 0.8748 0.8748 0.8748
1761.000000 0.8748 0.8748 0.8748 0.8748 0.8748
1756.000000 0.8748 0.8748 0.8748 0.8748 0.8748
1751.000000 0.8748 0.8748 0.8748 0.8748 0.8748
1746.000000 0.8748 0.8748 0.8748 0.8748 0.8748
1741.000000 0.8749 0.8749 0.8749 0.8749 0.8749
1736.000000 0.8749 0.8750 0.8750 0.8750 0.8750
1731.000000 0.8750 0.8750 0.8749 0.8749 0.8748
1726.000000 0.8748 0.8747 0.8747 0.8746 0.8746
1721.000000 0.8745 0.8745 0.8744 0.8744 0.8743
1716.000000 0.8743 0.8742 0.8740 0.8738 0.8736
1711.000000 0.8734 0.8732 0.8730 0.8728 0.8725
1706.000000 0.8724 0.8721 0.8721 0.8724 0.8725
1701.000000 0.8727 0.8728 0.8730 0.8731 0.8727
1696.000000 0.8718 0.8710 0.8702 0.8694 0.8690
1691.000000 0.8692 0.8694 0.8696 0.8698 0.8700
1686.000000 0.8703 0.8705 0.8707 0.8709 0.8709
1681.000000 0.8709 0.8709 0.8709 0.8709 0.8709
1676.000000 0.8709 0.8714 0.8721 0.8727 0.8733
1671.000000 0.8739 0.8745 0.8751 0.8758 0.8764
1666.000000 0.8771 0.8777 0.8784 0.8791 0.8797
1661.000000 0.8804 0.8811 0.8817 0.8824 0.8830
1656.000000 0.8837 0.8845 0.8858 0.8870 0.8883
1651.000000 0.8895 0.8907 0.8918 0.8930 0.8941
1646.000000 0.8950 0.8958 0.8957 0.8956 0.8949
1641.000000 0.8939 0.8927 0.8914 0.8898 0.8883
1636.000000 0.8867 0.8851 0.8836 0.8820 0.8805
1631.000000 0.8789 0.8774 0.8758 0.8737 0.8713
1626.000000 0.8689 0.8666 0.8642 0.8618 0.8594
1621.000000 0.8570 0.8546 0.8518 0.8491 0.8463
1616.000000 0.8435 0.8407 0.8378 0.8351 0.8321
1611.000000 0.8290 0.8259 0.8228 0.8198 0.8154
1606.000000 0.8110 0.8065 0.8019 0.7975 0.7893
1601.000000 0.7803 0.7712 0.7619 0.7526 0.7433
1596.000000 0.7356 0.7290 0.7224 0.7157 0.7090
1591.000000 0.7011 0.6928 0.6819 0.6645 0.6568
1586.000000 0.6532 0.6497 0.6461 0.6425 0.6390
1581.000000 0.6354 0.6319 0.6287 0.6258 0.6229
1576.000000 0.6201 0.6160 0.6117 0.6088 0.6060
1571.000000 0.6033 0.6005 0.5965 0.5905 0.5845
1566.000000 0.5784 0.5721 0.5655 0.5573 0.5495
1561.000000 0.5421 0.5308 0.5294 0.5280 0.4825
1556.000000 0.4724 0.4622 0.4571 0.4529 0.4496
1551.000000 0.4482 0.4479 0.4480 0.4480 0.4496
1546.000000 0.4518 0.4559 0.4600 0.4647 0.4704
1541.000000 0.4760 0.4818 0.4889 0.4960 0.5030
1536.000000 0.5107 0.5217 0.5326 0.5471 0.5647
1531.000000 0.5776 0.5882 0.5977 0.6065 0.6131
1526.000000 0.6191 0.6251 0.6301 0.6345 0.6389
1521.000000 0.6433 0.6476 0.6524 0.6571 0.6618
1516.000000 0.6665 0.6708 0.6748 0.6786 0.6824
1511.000000 0.6861 0.6911 0.6957 0.7003 0.7049
1506.000000 0.7108 0.7168 0.7230 0.7291 0.7328
1501.000000 0.7368 0.7407 0.7445 0.7480 0.7515
1496.000000 0.7550 0.7584 0.7618 0.7653 0.7684
1491.000000 0.7711 0.7735 0.7755 0.7774 0.7782
1486.000000 0.7788 0.7789 0.7805 0.7785 0.7783
1481.000000 0.7781 0.7768 0.7741 0.7703 0.7648
1476.000000 0.7594 0.7512 0.7430 0.7268 0.7168
1471.000000 0.6556 0.5672 0.4788 0.3903 0.3384
1466.000000 0.3396 0.3680 0.4000 0.4455 0.4456
1461.000000 0.4439 0.4086 0.4018 0.3959 0.3940
1456.000000 0.3932 0.3930 0.3997 0.4127 0.4260
1451.000000 0.4394 0.4531 0.4575 0.4605 0.4624
1446.000000 0.4645 0.4668 0.4746 0.5091 0.5436
1441.000000 0.5780 0.6125 0.6469 0.6519 0.6543
1436.000000 0.6561 0.6693 0.6905 0.7018 0.7030
1431.000000 0.6911 0.6608 0.6436 0.6446 0.6719
1426.000000 0.7111 0.7501 0.7628 0.7753 0.7871
1421.000000 0.7948 0.8024 0.8093 0.8149 0.8200
1416.000000 0.8247 0.8255 0.8263 0.8268 0.8271
1411.000000 0.8275 0.8278 0.8290 0.8302 0.8316
1406.000000 0.8336 0.8357 0.8371 0.8384 0.8385
1401.000000 0.8367 0.8345 0.8325 0.8313 0.8314
1396.000000 0.8315 0.8344 0.8306 0.8228 0.8125
1391.000000 0.8071 0.7987 0.7895 0.7798 0.7699
1386.000000 0.7585 0.7461 0.6915 0.6157 0.5398
1381.000000 0.4639 0.3929 0.3936 0.4506 0.5214
1376.000000 0.5921 0.6548 0.6760 0.7068 0.7268
1371.000000 0.7451 0.7632 0.7761 0.7825 0.7890
1366.000000 0.7955 0.8018 0.8083 0.8140 0.8200
1361.000000 0.8255 0.8287 0.8288 0.8289 0.8285
1356.000000 0.8284 0.8289 0.8307 0.8324 0.8342
1351.000000 0.8360 0.8378 0.8398 0.8389 0.8378
1346.000000 0.8368 0.8352 0.8335 0.8318 0.8302
1341.000000 0.8287 0.8271 0.8264 0.8275 0.8291
1336.000000 0.8309 0.8327 0.8335 0.8343 0.8330
1331.000000 0.8317 0.8304 0.8304 0.8320 0.8336
1326.000000 0.8351 0.8367 0.8382 0.8398 0.8414
1321.000000 0.8428 0.8445 0.8455 0.8465 0.8475
1316.000000 0.8485 0.8489 0.8475 0.8458 0.8435
1311.000000 0.8400 0.8351 0.8255 0.8147 0.8039
1306.000000 0.7931 0.7822 0.7634 0.7631 0.7631
1301.000000 0.7681 0.7795 0.7910 0.7958 0.7994
1296.000000 0.8028 0.8058 0.8087 0.8124 0.8143
1291.000000 0.8150 0.8184 0.8156 0.8086 0.7999
1286.000000 0.7919 0.7851 0.7764 0.7755 0.7756
1281.000000 0.7841 0.7967 0.8117 0.8144 0.8172
1276.000000 0.8168 0.8165 0.8154 0.8112 0.8044
1271.000000 0.7942 0.7818 0.7688 0.7558 0.7428
1266.000000 0.7028 0.7167 0.7047 0.7045 0.7044
1261.000000 0.7226 0.7422 0.7414 0.7428 0.6914
1256.000000 0.6478 0.6044 0.5610 0.5175 0.4740
1251.000000 0.3964 0.3976 0.3986 0.4436 0.4906
1246.000000 0.5377 0.5847 0.6173 0.6332 0.6493
1241.000000 0.6718 0.6946 0.7171 0.7399 0.7625
1236.000000 0.7838 0.7926 0.8012 0.8093 0.8161
1231.000000 0.8225 0.8283 0.8321 0.8347 0.8371
1226.000000 0.8390 0.8404 0.8418 0.8430 0.8446
1221.000000 0.8410 0.8392 0.8360 0.8321 0.8281
1216.000000 0.8231 0.8175 0.8118 0.8058 0.7947
1211.000000 0.7835 0.7726 0.7619 0.7486 0.7184
1206.000000 0.7041 0.6561 0.6151 0.5664 0.5178
1201.000000 0.4692 0.4206 0.3303 0.3282 0.3279
1196.000000 0.3416 0.3654 0.3893 0.4123 0.4365
1191.000000 0.4454 0.4540 0.4788 0.5138 0.5487
1186.000000 0.5837 0.6186 0.6536 0.6886 0.7235
1181.000000 0.7548 0.7676 0.7826 0.7983 0.8071
1176.000000 0.8143 0.8214 0.8261 0.8280 0.8299
1171.000000 0.8314 0.8328 0.8343 0.8351 0.8359
1166.000000 0.8366 0.8371 0.8373 0.8321 0.8258
1161.000000 0.8191 0.8003 0.7850 0.7722 0.7596
1156.000000 0.7465 0.7336 0.7244 0.7158 0.7071
1151.000000 0.6958 0.6825 0.6661 0.5606 0.4460
1146.000000 0.4291 0.4260 0.4354 0.4568 0.4782
1141.000000 0.4996 0.5210 0.5424 0.5637 0.5851
1136.000000 0.6065 0.6279 0.6493 0.6707 0.6921
1131.000000 0.7135 0.7208 0.7205 0.7200 0.7208
1126.000000 0.7343 0.7478 0.7614 0.7706 0.7730
1121.000000 0.7754 0.7776 0.7799 0.7821 0.7875
1116.000000 0.7941 0.8015 0.8105 0.8194 0.8267
1111.000000 0.8327 0.8388 0.8437 0.8473 0.8508
1106.000000 0.8542 0.8556 0.8571 0.8585 0.8599
1101.000000 0.8612 0.8621 0.8631 0.8640 0.8649
1096.000000 0.8658 0.8667 0.8675 0.8684 0.8689
1091.000000 0.8693 0.8698 0.8703 0.8707 0.8713
1086.000000 0.8698 0.8699 0.8699 0.8692 0.8661
1081.000000 0.8627 0.8592 0.8557 0.8521 0.8486
1076.000000 0.8452 0.8418 0.8400 0.8378 0.8352
1071.000000 0.8252 0.8141 0.8069 0.7976 0.8003
1066.000000 0.7999 0.8018 0.8115 0.8227 0.8334
1061.000000 0.8425 0.8486 0.8520 0.8550 0.8562
1056.000000 0.8568 0.8568 0.8568 0.8555 0.8534
1051.000000 0.8443 0.8311 0.8176 0.8188 0.8203
1046.000000 0.8286 0.8359 0.8410 0.8450 0.8484
1041.000000 0.8516 0.8532 0.8534 0.8537 0.8540
1036.000000 0.8543 0.8546 0.8549 0.8550 0.8542
1031.000000 0.8578 0.8449 0.8076 0.7862 0.7735
1026.000000 0.7650 0.7634 0.7643 0.7650 0.7769
1021.000000 0.7851 0.7915 0.7978 0.8146 0.8238
1016.000000 0.8325 0.8399 0.8463 0.8515 0.8554
1011.000000 0.8595 0.8639 0.8643 0.8645 0.8652
1006.000000 0.8648 0.8640 0.8625 0.8549 0.8356
1001.000000 0.8249 0.8164 0.8087 0.8096 0.8117
996.000000 0.8197 0.8264 0.8306 0.8362 0.8332
991.000000 0.8341 0.8248 0.7957 0.7847 0.7849
986.000000 0.7849 0.7849 0.7848 0.7722 0.7611
981.000000 0.7475 0.7328 0.7169 0.7108 0.7108
976.000000 0.7108 0.7462 0.7691 0.7994 0.8278
971.000000 0.8412 0.8536 0.8611 0.8686 0.8734
966.000000 0.8764 0.8794 0.8823 0.8853 0.8870
961.000000 0.8881 0.8892 0.8903 0.8914 0.8925
956.000000 0.8937 0.8948 0.8955 0.8959 0.8963
951.000000 0.8966 0.8970 0.8974 0.8978 0.8978
946.000000 0.8978 0.8978 0.8992 0.8975 0.8973
941.000000 0.8971 0.8970 0.8958 0.8945 0.8932
936.000000 0.8913 0.8887 0.8860 0.8806 0.8733
931.000000 0.8642 0.8528 0.8302 0.8103 0.7904
926.000000 0.7705 0.7505 0.7293 0.7421 0.7565
921.000000 0.7708 0.7851 0.7996 0.8045 0.7855
916.000000 0.7715 0.7575 0.7498 0.7515 0.7567
911.000000 0.7997 0.8251 0.8396 0.8503 0.8565
906.000000 0.8618 0.8647 0.8673 0.8685 0.8697
901.000000 0.8709 0.8721 0.8733 0.8743 0.8743
896.000000 0.8743 0.8733 0.8781 0.8711 0.8685
891.000000 0.8648 0.8611 0.8573 0.8513 0.8454
886.000000 0.8394 0.8335 0.8283 0.8231 0.8178
881.000000 0.8126 0.8054 0.7974 0.7893 0.7811
876.000000 0.7733 0.7660 0.7586 0.7512 0.7305
871.000000 0.7114 0.7058 0.7042 0.7026 0.7010
866.000000 0.6968 0.6919 0.6858 0.6796 0.6738
861.000000 0.6665 0.6687 0.6708 0.6756 0.6774
856.000000 0.6792 0.6803 0.6811 0.6828 0.6939
851.000000 0.7186 0.7247 0.7307 0.7368 0.7438
846.000000 0.7508 0.7578 0.7701 0.7880 0.7975
841.000000 0.8071 0.8167 0.8262 0.8357 0.8445
836.000000 0.8518 0.8592 0.8635 0.8667 0.8699
831.000000 0.8727 0.8750 0.8773 0.8792 0.8802
826.000000 0.8813 0.8823 0.8833 0.8844 0.8853
821.000000 0.8854 0.8856 0.8858 0.8858 0.8843
816.000000 0.8827 0.8804 0.8773 0.8742 0.8736
811.000000 0.8730 0.8723 0.8728 0.8738 0.8748
806.000000 0.8758 0.8768 0.8786 0.8787 0.8788
801.000000 0.8778 0.8771 0.8770 0.8768 0.8771
796.000000 0.8773 0.8775 0.8775 0.8778 0.8780
791.000000 0.8786 0.8794 0.8801 0.8809 0.8816
786.000000 0.8823 0.8830 0.8833 0.8843 0.8836
781.000000 0.8836 0.8836 0.8836 0.8836 0.8836
776.000000 0.8836 0.8835 0.8830 0.8825 0.8820
771.000000 0.8815 0.8807 0.8798 0.8789 0.8780
766.000000 0.8771 0.8756 0.8727 0.8698 0.8636
761.000000 0.8570 0.8508 0.8446 0.8359 0.8263
756.000000 0.8128 0.7980 0.7746 0.7512 0.6891
751.000000 0.7046 0.6908 0.7055 0.7215 0.7376
746.000000 0.7462 0.7475 0.7165 0.6912 0.6661
741.000000 0.6431 0.6424 0.6757 0.7339 0.7697
736.000000 0.7830 0.7965 0.8104 0.8233 0.8339
731.000000 0.8444 0.8506 0.8566 0.8614 0.8638
726.000000 0.8663 0.8688 0.8713 0.8738 0.8762
721.000000 0.8775 0.8785 0.8794 0.8804 0.8813
716.000000 0.8821 0.8831 0.8840 0.8846 0.8850
711.000000 0.8854 0.8857 0.8861 0.8865 0.8868
706.000000 0.8873 0.8877 0.8880 0.8884 0.8888
701.000000 0.8892 0.8894 0.8894 0.8895 0.8896
696.000000 0.8897 0.8898 0.8899 0.8900 0.8901
691.000000 0.8902 0.8903 0.8904 0.8905 0.8906
686.000000 0.8907 0.8908 0.8910 0.8912 0.8914
681.000000 0.8916 0.8917 0.8918 0.8913 0.8923
676.000000 0.8923 0.8921 0.8920 0.8918 0.8916
671.000000 0.8915 0.8913 0.8906 0.8895 0.8884
666.000000 0.8871 0.8861 0.8845 0.8825 0.8804
661.000000 0.8784 0.8762 0.8734 0.8706 0.8678
656.000000 0.8660 0.8648 0.8636 0.8624 0.8618
651.000000 0.8628 0.8636 0.8642 0.8650 0.8657
646.000000 0.8665 0.8673 0.8681 0.8689 0.8697
641.000000 0.8725 0.8771 0.8818 0.8847 0.8868
636.000000 0.8875 0.8881 0.8887 0.8893 0.8898
631.000000 0.8902 0.8907 0.8907 0.8907 0.8925
626.000000 0.8900 0.8856 0.8811 0.8767 0.8671
621.000000 0.8574 0.8438 0.8178 0.7878 0.7578
616.000000 0.7276 0.6975 0.6675 0.6390 0.6369
611.000000 0.6555 0.6874 0.7194 0.7512 0.7833
606.000000 0.8164 0.8290 0.8421 0.8568 0.8625
601.000000 0.8685 0.8740 0.8789 0.8830 0.8862
596.000000 0.8895 0.8927 0.8963 0.8999 0.9007
591.000000 0.8955 0.9011 0.9010 0.9009 0.8999
586.000000 0.8978 0.8952 0.8923 0.8901 0.8913
581.000000 0.8925 0.8935 0.8944 0.8941 0.8885
576.000000 0.8828 0.8768 0.8771 0.8737 0.8759
571.000000 0.8894 0.8954 0.8989 0.9018 0.9023
566.000000 0.9028 0.9033 0.9037 0.9039 0.9039
561.000000 0.9039 0.9039 0.9038 0.9033 0.9025
556.000000 0.9016 0.9008 0.9000 0.8984 0.8963
551.000000 0.8942 0.8890 0.8838 0.8785 0.8725
546.000000 0.8636 0.8548 0.8449 0.8318 0.8151
541.000000 0.7838 0.7640 0.7371 0.7101 0.6832
536.000000 0.6562 0.6294 0.6217 0.6196 0.6195
531.000000 0.6201 0.6246 0.6595 0.6868 0.7142
526.000000 0.7415 0.7689 0.7961 0.8158 0.8495
521.000000 0.8555 0.8599 0.8617 0.8632 0.8641
516.000000 0.8666 0.8575 0.8512 0.8421 0.8249
511.000000 0.8282 0.8275 0.8297 0.8487 0.8607
506.000000 0.8683 0.8759 0.8808 0.8854 0.8900
501.000000 0.8944 0.8980 0.9010 0.9023 0.9036
496.000000 0.9049 0.9051 0.9046 0.9042 0.9037
491.000000 0.9033 0.9028 0.9027 0.9025 0.9025
486.000000 0.9025 0.9023 0.9021 0.9020 0.9018
481.000000 0.9018 0.9017 0.9016 0.9015 0.9014
476.000000 0.9013 0.9012 0.9011 0.9010 0.9008
471.000000 0.9007 0.9006 0.9005 0.9003 0.8999
466.000000 0.8992 0.8985 0.8978 0.8971 0.8965
461.000000 0.8958 0.8953 0.8949 0.8944 0.8939
456.000000 0.8935 0.8930 0.8920 0.8906 0.8891
451.000000 0.8875
##END=
