##TITLE=FORMIC ACID, METHYL ESTER
##JCAMP-DX=4.24
##DATA TYPE=INFRARED SPECTRUM
##CLASS=COBLENTZ
##ORIGIN=DOW CHEMICAL COMPANY
##OWNER=COBLENTZ SOCIETY
Collection (C) 2018 copyright by the U.S. Secretary of Commerce
on behalf of the United States of America. All rights reserved.
##DATE=1964
##NAMES=methyl formate
METHYL FORMATE
##CAS REGISTRY NO=107-31-3
##MOLFORM=C2 H4 O2
##SOURCE REFERENCE=COBLENTZ NO. 8780
##$NIST SOURCE=COBLENTZ
##$NIST IMAGE=cob-r8780
##SPECTROMETER/DATA SYSTEM=DOW KBr FOREPRISM-GRATING
##INSTRUMENT PARAMETERS=GRATING CHANGED AT 5.0, 7.5, 15.0 MICRON
$$ ABSORPTIONS DUE TO METHANOL BETWEEN 1084-981 CM^-^1.
##STATE=GAS (100 mmHg, N2 ADDED, TOTAL PRESSURE 600 mmHg)
##PATH LENGTH=5 CM
$$ SPECTRAL CONTAMINATION DUE TO METHANOL AROUND 980-1085 CM^-^1
##SAMPLING PROCEDURE=TRANSMISSION
##RESOLUTION=2
##DATA PROCESSING=DIGITIZED BY NIST FROM HARD COPY (FROM TWO SEGMENTS)
##XUNITS=1/CM
##YUNITS=TRANSMITTANCE
##XFACTOR=1.000000
##YFACTOR=1
##DELTAX=0.937502
##FIRSTX=382.813
##LASTX=3753.13
##FIRSTY=0.975
##MAXX=3753.13
##MINX=382.813
##MAXY=1.005
##MINY=0
##NPOINTS=3596
##XYDATA=(X++(Y..Y))
382.813000 0.9750 0.9730 0.9730 0.9750 0.9730
387.500508 0.9730 0.9730 0.9730 0.9730 0.9720
392.188016 0.9720 0.9720 0.9720 0.9700 0.9700
396.875524 0.9670 0.9670 0.9670 0.9670 0.9670
401.563032 0.9670 0.9660 0.9660 0.9660 0.9660
406.250539 0.9660 0.9650 0.9650 0.9650 0.9650
410.938047 0.9630 0.9650 0.9650 0.9650 0.9630
415.625555 0.9630 0.9630 0.9630 0.9630 0.9620
420.313063 0.9620 0.9620 0.9620 0.9600 0.9600
425.000571 0.9600 0.9590 0.9590 0.9590 0.9590
429.688079 0.9570 0.9570 0.9560 0.9560 0.9560
434.375587 0.9560 0.9560 0.9560 0.9560 0.9540
439.063095 0.9540 0.9540 0.9540 0.9540 0.9560
443.750602 0.9560 0.9560 0.9560 0.9560 0.9560
448.438110 0.9560 0.9560 0.9570 0.9570 0.9570
453.125618 0.9590 0.9590 0.9590 0.9590 0.9590
457.813126 0.9590 0.9590 0.9590 0.9590 0.9590
462.500634 0.9590 0.9590 0.9590 0.9590 0.9590
467.188142 0.9590 0.9590 0.9590 0.9590 0.9590
471.875650 0.9590 0.9590 0.9590 0.9590 0.9590
476.563158 0.9590 0.9590 0.9600 0.9600 0.9620
481.250666 0.9620 0.9620 0.9620 0.9620 0.9620
485.938173 0.9600 0.9600 0.9590 0.9590 0.9570
490.625681 0.9570 0.9570 0.9560 0.9560 0.9560
495.313189 0.9560 0.9540 0.9540 0.9530 0.9530
500.000697 0.9530 0.9530 0.9530 0.9530 0.9530
504.688205 0.9530 0.9530 0.9510 0.9510 0.9510
509.375713 0.9510 0.9510 0.9510 0.9500 0.9500
514.063221 0.9500 0.9500 0.9500 0.9500 0.9500
518.750729 0.9500 0.9480 0.9480 0.9480 0.9480
523.438236 0.9480 0.9480 0.9480 0.9470 0.9470
528.125744 0.9470 0.9470 0.9470 0.9470 0.9460
532.813252 0.9460 0.9460 0.9460 0.9460 0.9460
537.500760 0.9460 0.9460 0.9460 0.9460 0.9470
542.188268 0.9470 0.9470 0.9470 0.9480 0.9480
546.875776 0.9480 0.9480 0.9470 0.9470 0.9470
551.563284 0.9470 0.9470 0.9470 0.9480 0.9470
556.250792 0.9470 0.9470 0.9470 0.9470 0.9470
560.938299 0.9470 0.9470 0.9470 0.9460 0.9460
565.625807 0.9460 0.9460 0.9470 0.9460 0.9460
570.313315 0.9460 0.9460 0.9460 0.9460 0.9470
575.000823 0.9470 0.9480 0.9480 0.9480 0.9500
579.688331 0.9500 0.9510 0.9510 0.9510 0.9510
584.375839 0.9530 0.9530 0.9530 0.9530 0.9530
589.063347 0.9530 0.9530 0.9540 0.9540 0.9540
593.750855 0.9530 0.9530 0.9540 0.9540 0.9540
598.438363 0.9560 0.9560 0.9560 0.9570 0.9570
603.125870 0.9570 0.9560 0.9570 0.9570 0.9570
607.813378 0.9590 0.9590 0.9590 0.9600 0.9600
612.500886 0.9590 0.9590 0.9590 0.9570 0.9570
617.188394 0.9570 0.9570 0.9570 0.9570 0.9570
621.875902 0.9570 0.9570 0.9570 0.9570 0.9570
626.563410 0.9590 0.9590 0.9600 0.9620 0.9620
631.250918 0.9630 0.9620 0.9620 0.9630 0.9630
635.938426 0.9630 0.9650 0.9650 0.9650 0.9660
640.625933 0.9670 0.9670 0.9690 0.9700 0.9730
645.313441 0.9750 0.9750 0.9760 0.9790 0.9810
650.000949 0.9810 0.9820 0.9830 0.9830 0.9850
654.688457 0.9850 0.9850 0.9850 0.9850 0.9850
659.375965 0.9850 0.9830 0.9830 0.9820 0.9830
664.063473 0.9830 0.9830 0.9830 0.9850 0.9830
668.750981 0.9850 0.9860 0.9860 0.9880 0.9890
673.438489 0.9910 0.9920 0.9920 0.9940 0.9940
678.125997 0.9940 0.9950 0.9950 0.9950 0.9950
682.813504 0.9950 0.9950 0.9950 0.9970 0.9980
687.501012 0.9980 0.9980 1.0000 1.0000 1.0000
692.188520 1.0010 1.0010 1.0010 1.0010 1.0020
696.876028 1.0020 1.0040 1.0040 1.0050 1.0050
701.563536 1.0050 1.0050 1.0050 1.0050 1.0050
706.251044 1.0050 1.0040 1.0040 1.0040 1.0040
710.938552 1.0040 1.0040 1.0050 1.0050 1.0040
715.626060 1.0040 1.0020 1.0020 1.0010 0.9980
720.313567 0.9970 0.9950 0.9940 0.9920 0.9890
725.001075 0.9860 0.9850 0.9830 0.9830 0.9790
729.688583 0.9760 0.9730 0.9700 0.9660 0.9620
734.376091 0.9600 0.9540 0.9510 0.9470 0.9410
739.063599 0.9380 0.9380 0.9280 0.9220 0.9160
743.751107 0.9060 0.8960 0.8890 0.8840 0.8770
748.438615 0.8640 0.8490 0.8360 0.8300 0.8220
753.126123 0.8030 0.7821 0.7651 0.7471 0.7331
757.813630 0.7210 0.7080 0.6960 0.6850 0.6800
762.501138 0.6760 0.6730 0.6740 0.6800 0.6860
767.188646 0.6990 0.7110 0.7740 0.7850 0.7930
771.876154 0.7940 0.8060 0.8289 0.7981 0.7721
776.563662 0.7590 0.6930 0.6740 0.6570 0.6470
781.251170 0.6380 0.6350 0.6340 0.6350 0.6420
785.938678 0.6500 0.6570 0.6610 0.6770 0.6920
790.626186 0.7010 0.7090 0.7210 0.7469 0.7908
795.313694 0.8100 0.8250 0.8380 0.8480 0.8580
800.001201 0.8680 0.8770 0.8840 0.8950 0.9000
804.688709 0.9090 0.9150 0.9180 0.9210 0.9300
809.376217 0.9370 0.9400 0.9430 0.9480 0.9510
814.063725 0.9560 0.9600 0.9620 0.9630 0.9660
818.751233 0.9670 0.9700 0.9730 0.9750 0.9760
823.438741 0.9780 0.9790 0.9810 0.9810 0.9810
828.126249 0.9810 0.9820 0.9820 0.9820 0.9820
832.813757 0.9820 0.9820 0.9820 0.9820 0.9820
837.501264 0.9820 0.9820 0.9820 0.9820 0.9820
842.188772 0.9810 0.9810 0.9810 0.9810 0.9810
846.876280 0.9790 0.9790 0.9790 0.9780 0.9780
851.563788 0.9760 0.9760 0.9750 0.9750 0.9700
856.251296 0.9700 0.9690 0.9670 0.9660 0.9650
860.938804 0.9630 0.9630 0.9600 0.9590 0.9560
865.626312 0.9540 0.9530 0.9500 0.9480 0.9440
870.313820 0.9430 0.9410 0.9400 0.9370 0.9280
875.001328 0.9210 0.9160 0.9090 0.9000 0.8970
879.688835 0.8950 0.8840 0.8790 0.8700 0.8580
884.376343 0.8480 0.8390 0.8290 0.8190 0.8061
889.063851 0.7950 0.7810 0.7630 0.7530 0.7410
893.751359 0.6891 0.6790 0.6640 0.6501 0.6311
898.438867 0.6060 0.5860 0.5650 0.5420 0.5160
903.126375 0.4920 0.4671 0.4461 0.3902 0.3542
907.813883 0.3350 0.3140 0.2900 0.2880 0.2900
912.501391 0.2940 0.3040 0.3130 0.3170 0.3170
917.188898 0.3230 0.3260 0.3300 0.3320 0.3460
921.876406 0.3480 0.3859 0.4239 0.4250 0.4369
926.563914 0.4370 0.3920 0.3810 0.3730 0.3171
931.251422 0.2601 0.2401 0.2390 0.2400 0.2430
935.938930 0.2470 0.2500 0.2550 0.2690 0.2940
940.626438 0.3070 0.3409 0.3609 0.3889 0.4029
945.313946 0.4160 0.4440 0.4720 0.5000 0.5270
950.001454 0.5549 0.5829 0.6099 0.6439 0.6659
954.688961 0.6820 0.6930 0.7010 0.7080 0.7250
959.376469 0.7440 0.7620 0.7760 0.7870 0.8129
964.063977 0.8290 0.8360 0.8410 0.8520 0.8570
968.751485 0.8650 0.8730 0.8770 0.8800 0.8830
973.438993 0.8950 0.9030 0.9050 0.9050 0.9060
978.126501 0.9060 0.9060 0.9060 0.9050 0.9050
982.814009 0.9020 0.9000 0.8990 0.8970 0.8960
987.501517 0.8950 0.8900 0.8870 0.8860 0.8840
992.189025 0.8800 0.8790 0.8680 0.8620 0.8610
996.876532 0.8580 0.8570 0.8490 0.8420 0.8410
1001.564040 0.8380 0.8300 0.8200 0.8190 0.8140
1006.251548 0.8100 0.8060 0.8040 0.8030 0.8010
1010.939056 0.8000 0.8000 0.7980 0.7980 0.7980
1015.626564 0.7980 0.8000 0.8000 0.8010 0.8030
1020.314072 0.8070 0.8130 0.8170 0.8230 0.8290
1025.001580 0.8300 0.8390 0.8450 0.8460 0.8480
1029.689088 0.8480 0.8460 0.8450 0.8300 0.7870
1034.376595 0.6862 0.5114 0.6895 0.7518 0.8108
1039.064103 0.8420 0.8440 0.8440 0.8420 0.8350
1043.751611 0.8230 0.8130 0.8000 0.7870 0.7591
1048.439119 0.7530 0.7460 0.7390 0.7310 0.7240
1053.126627 0.7170 0.7090 0.7010 0.6990 0.7010
1057.814135 0.7020 0.7060 0.7090 0.7140 0.7180
1062.501643 0.7200 0.7250 0.7310 0.7370 0.7430
1067.189151 0.7460 0.7620 0.7710 0.7790 0.7850
1071.876659 0.7880 0.7930 0.7940 0.7980 0.8040
1076.564166 0.8090 0.8140 0.8200 0.8250 0.8270
1081.251674 0.8270 0.8290 0.8290 0.8290 0.8290
1085.939182 0.8270 0.8260 0.8230 0.8220 0.8190
1090.626690 0.8140 0.8110 0.8090 0.8060 0.8000
1095.314198 0.7950 0.7880 0.7840 0.7810 0.7750
1100.001706 0.7680 0.7650 0.7600 0.7520 0.7440
1104.689214 0.7360 0.7300 0.7250 0.7200 0.7120
1109.376722 0.6950 0.6920 0.6830 0.6730 0.6610
1114.064229 0.6500 0.6390 0.6280 0.6160 0.6060
1118.751737 0.5940 0.5810 0.5690 0.5580 0.5341
1123.439245 0.5180 0.5100 0.4980 0.4780 0.4540
1128.126753 0.4221 0.3971 0.3771 0.3351 0.2553
1132.814261 0.2440 0.2250 0.2010 0.1760 0.1510
1137.501769 0.1310 0.1150 0.0801 0.0481 0.0271
1142.189277 0.0040 0.0010 0.0010 0.0010 0.0000
1146.876785 0.0000 0.0000 0.0000 0.0000 0.0000
1151.564292 0.0000 0.0000 0.0000 0.0000 0.0000
1156.251800 0.0000 0.0000 0.0000 0.0000 0.0000
1160.939308 0.0000 0.0000 0.0000 0.0000 0.0000
1165.626816 0.0000 0.0000 0.0000 0.0000 0.0000
1170.314324 0.0000 0.0000 0.0000 0.0000 0.0000
1175.001832 0.0000 0.0000 0.0000 0.0000 0.0000
1179.689340 0.0000 0.0000 0.0000 0.0000 0.0000
1184.376848 0.0000 0.0010 0.0010 0.0010 0.0010
1189.064356 0.0010 0.0010 0.0010 0.0010 0.0010
1193.751863 0.0010 0.0010 0.0010 0.0010 0.0010
1198.439371 0.0010 0.0010 0.0010 0.0010 0.0010
1203.126879 0.0010 0.0010 0.0010 0.0010 0.0000
1207.814387 0.0000 0.0000 0.0010 0.0020 0.0020
1212.501895 0.0020 0.0020 0.0020 0.0010 0.0000
1217.189403 0.0000 0.0010 0.0010 0.0010 0.0010
1221.876911 0.0010 0.0020 0.0040 0.0040 0.0070
1226.564419 0.0080 0.0080 0.0100 0.0130 0.0170
1231.251926 0.0210 0.0290 0.0390 0.0490 0.0580
1235.939434 0.0640 0.0710 0.0780 0.0810 0.0930
1240.626942 0.1040 0.1120 0.1349 0.1410 0.1470
1245.314450 0.1540 0.1570 0.1610 0.1660 0.1690
1250.001958 0.1730 0.1790 0.2049 0.2229 0.2310
1254.689466 0.2370 0.2630 0.3000 0.3360 0.3700
1259.376974 0.3960 0.4110 0.4240 0.4479 0.4749
1264.064482 0.5010 0.5270 0.5520 0.5750 0.5990
1268.751990 0.6200 0.6350 0.6470 0.6659 0.6799
1273.439497 0.6950 0.7020 0.7080 0.7200 0.7310
1278.127005 0.7400 0.7490 0.7580 0.7660 0.7740
1282.814513 0.7810 0.7900 0.7970 0.8060 0.8140
1287.502021 0.8230 0.8330 0.8360 0.8440 0.8619
1292.189529 0.8650 0.8700 0.8700 0.8700 0.8680
1296.877037 0.8680 0.8670 0.8670 0.8650 0.8640
1301.564545 0.8620 0.8610 0.8600 0.8600 0.8600
1306.252053 0.8600 0.8600 0.8610 0.8610 0.8620
1310.939560 0.8640 0.8650 0.8670 0.8680 0.8680
1315.627068 0.8680 0.8680 0.8670 0.8670 0.8670
1320.314576 0.8650 0.8650 0.8640 0.8610 0.8570
1325.002084 0.8540 0.8520 0.8490 0.8460 0.8460
1329.689592 0.8450 0.8390 0.8360 0.8350 0.8260
1334.377100 0.8230 0.8220 0.8190 0.8110 0.8090
1339.064608 0.8090 0.8070 0.8060 0.8040 0.8030
1343.752116 0.8000 0.8000 0.7950 0.7950 0.7940
1348.439623 0.7940 0.7940 0.7940 0.7940 0.7720
1353.127131 0.7690 0.7680 0.7660 0.7660 0.7630
1357.814639 0.7620 0.7600 0.7600 0.7600 0.7600
1362.502147 0.7620 0.7630 0.7650 0.7690 0.7750
1367.189655 0.7790 0.7870 0.7970 0.7980 0.8010
1371.877163 0.8030 0.8030 0.8010 0.8010 0.7980
1376.564671 0.7970 0.7950 0.7950 0.7950 0.7950
1381.252179 0.7970 0.7980 0.8000 0.8000 0.8010
1385.939687 0.8030 0.8030 0.8040 0.8060 0.8060
1390.627194 0.8070 0.8090 0.8090 0.8100 0.8100
1395.314702 0.8110 0.8110 0.8110 0.8130 0.8130
1400.002210 0.8130 0.8130 0.8130 0.8130 0.8130
1404.689718 0.8130 0.8110 0.8110 0.8090 0.8070
1409.377226 0.8060 0.8030 0.8000 0.7930 0.7820
1414.064734 0.7750 0.7650 0.7600 0.7490 0.7430
1418.752242 0.7310 0.7170 0.6851 0.6690 0.6550
1423.439750 0.6440 0.6350 0.6180 0.6020 0.5900
1428.127257 0.5780 0.5640 0.5450 0.5330 0.5260
1432.814765 0.5160 0.5080 0.5050 0.5040 0.5020
1437.502273 0.4910 0.4820 0.4810 0.4850 0.4820
1442.189781 0.4308 0.3390 0.3200 0.3000 0.3040
1446.877289 0.3060 0.3090 0.3100 0.3110 0.3140
1451.564797 0.3190 0.3219 0.2660 0.2370 0.2650
1456.252305 0.2910 0.3140 0.3549 0.3640 0.3760
1460.939813 0.3890 0.3990 0.4080 0.4500 0.4510
1465.627321 0.4510 0.3931 0.4080 0.4220 0.4270
1470.314828 0.4851 0.5301 0.5800 0.5770 0.5400
1475.002336 0.5390 0.5400 0.5490 0.5510 0.5510
1479.689844 0.5610 0.5650 0.5750 0.5880 0.6060
1484.377352 0.6230 0.6290 0.6340 0.6470 0.6540
1489.064860 0.6700 0.6820 0.6920 0.7010 0.7120
1493.752368 0.7280 0.7460 0.7500 0.7550 0.7600
1498.439876 0.7620 0.7660 0.7720 0.7750 0.7810
1503.127384 0.7870 0.7870 0.7900 0.7900 0.7880
1507.814891 0.7810 0.7810 0.7850 0.7910 0.8040
1512.502399 0.8140 0.8160 0.8170 0.8170 0.8190
1517.189907 0.8200 0.8200 0.8200 0.8200 0.8190
1521.877415 0.8160 0.8130 0.8110 0.8130 0.8220
1526.564923 0.8220 0.8230 0.8230 0.8250 0.8260
1531.252431 0.8260 0.8250 0.8230 0.8200 0.8190
1535.939939 0.8140 0.8160 0.8170 0.8200 0.8170
1540.627447 0.7970 0.7940 0.7950 0.8000 0.8110
1545.314955 0.8160 0.8190 0.8200 0.8220 0.8270
1550.002462 0.8300 0.8330 0.8330 0.8290 0.8260
1554.689970 0.8290 0.8350 0.8350 0.8320 0.8250
1559.377478 0.8190 0.8110 0.8060 0.8110 0.8200
1564.064986 0.8290 0.8360 0.8380 0.8380 0.8380
1568.752494 0.8360 0.8350 0.8300 0.8300 0.8330
1573.440002 0.8460 0.8480 0.8440 0.8420 0.8410
1578.127510 0.8440 0.8510 0.8610 0.8650 0.8670
1582.815018 0.8680 0.8730 0.8760 0.8760 0.8760
1587.502525 0.8760 0.8770 0.8770 0.8770 0.8770
1592.190033 0.8770 0.8790 0.8790 0.8810 0.8810
1596.877541 0.8830 0.8830 0.8840 0.8840 0.8860
1601.565049 0.8870 0.8930 0.8950 0.8960 0.8960
1606.252557 0.8960 0.8970 0.8970 0.8990 0.9020
1610.940065 0.9020 0.9030 0.9050 0.9080 0.9090
1615.627573 0.9090 0.9080 0.9090 0.8890 0.8890
1620.315081 0.9110 0.9120 0.9120 0.9080 0.9050
1625.002588 0.9060 0.9130 0.9150 0.9150 0.9160
1629.690096 0.9160 0.9180 0.9180 0.9180 0.9180
1634.377604 0.9180 0.9000 0.8970 0.8990 0.9050
1639.065112 0.9160 0.9160 0.9180 0.9180 0.9180
1643.752620 0.9160 0.9160 0.9150 0.9110 0.9080
1648.440128 0.9000 0.9110 0.9120 0.9120 0.9060
1653.127636 0.8870 0.8650 0.8840 0.8900 0.9000
1657.815144 0.9120 0.9150 0.9150 0.9150 0.9130
1662.502652 0.9110 0.9060 0.9030 0.9000 0.8960
1667.190159 0.9020 0.8990 0.8960 0.8810 0.8790
1671.877667 0.8800 0.8890 0.8840 0.8830 0.8641
1676.565175 0.8580 0.8610 0.8670 0.8710 0.8700
1681.252683 0.8680 0.8670 0.8580 0.8380 0.8171
1685.940191 0.8140 0.8170 0.8380 0.8390 0.8350
1690.627699 0.8160 0.8140 0.8100 0.7661 0.7590
1695.315207 0.7660 0.7629 0.7250 0.6980 0.6950
1700.002715 0.6890 0.6570 0.6350 0.6160 0.6030
1704.690222 0.5860 0.5710 0.5580 0.5390 0.5300
1709.377730 0.5240 0.5130 0.5070 0.4851 0.4531
1714.065238 0.3829 0.3330 0.3270 0.3250 0.3220
1718.752746 0.2880 0.2411 0.2300 0.1542 0.1161
1723.440254 0.0929 0.0679 0.0320 0.0070 0.0040
1728.127762 0.0040 0.0020 0.0010 0.0010 0.0010
1732.815270 0.0010 0.0010 0.0010 0.0010 0.0010
1737.502778 0.0010 0.0010 0.0010 0.0010 0.0010
1742.190286 0.0010 0.0010 0.0010 0.0010 0.0010
1746.877793 0.0010 0.0010 0.0010 0.0010 0.0010
1751.565301 0.0010 0.0010 0.0010 0.0010 0.0010
1756.252809 0.0010 0.0020 0.0020 0.0020 0.0020
1760.940317 0.0020 0.0020 0.0020 0.0020 0.0020
1765.627825 0.0040 0.0040 0.0040 0.0040 0.0040
1770.315333 0.0040 0.0040 0.0040 0.0050 0.0070
1775.002841 0.0080 0.0080 0.0100 0.0130 0.0270
1779.690349 0.0331 0.0880 0.1040 0.1190 0.1320
1784.377856 0.1540 0.1880 0.2209 0.2549 0.2899
1789.065364 0.3251 0.3581 0.3930 0.4110 0.4270
1793.752872 0.4590 0.4910 0.5230 0.5529 0.5809
1798.440380 0.6091 0.6340 0.6550 0.6740 0.6980
1803.127888 0.7090 0.7200 0.7440 0.7650 0.7790
1807.815396 0.7930 0.8010 0.8090 0.8160 0.8220
1812.502904 0.8260 0.8320 0.8360 0.8380 0.8390
1817.190412 0.8390 0.8410 0.8410 0.8420 0.8420
1821.877919 0.8420 0.8420 0.8380 0.8380 0.8360
1826.565427 0.8360 0.8360 0.8360 0.8380 0.8380
1831.252935 0.8410 0.8440 0.8450 0.8450 0.8480
1835.940443 0.8480 0.8480 0.8480 0.8480 0.8460
1840.627951 0.8460 0.8460 0.8450 0.8420 0.8380
1845.315459 0.8420 0.8440 0.8450 0.8450 0.8450
1850.002967 0.8460 0.8460 0.8480 0.8520 0.8550
1854.690475 0.8570 0.8600 0.8620 0.8670 0.8730
1859.377983 0.8740 0.8790 0.8810 0.8840 0.8930
1864.065490 0.8960 0.8970 0.9000 0.9000 0.9020
1868.752998 0.9030 0.9050 0.9080 0.9110 0.9110
1873.440506 0.9120 0.9150 0.9160 0.9180 0.9190
1878.128014 0.9220 0.9240 0.9240 0.9240 0.9250
1882.815522 0.9250 0.9250 0.9270 0.9270 0.9270
1887.503030 0.9270 0.9250 0.9250 0.9250 0.9250
1892.190538 0.9250 0.9240 0.9220 0.9220 0.9220
1896.878046 0.9220 0.9210 0.9190 0.9190 0.9180
1901.565553 0.9180 0.9160 0.9150 0.9150 0.9130
1906.253061 0.9120 0.9110 0.9110 0.9090 0.9080
1910.940569 0.9060 0.9050 0.9030 0.9020 0.9020
1915.628077 0.9000 0.8990 0.8970 0.8960 0.8950
1920.315585 0.8930 0.8930 0.8920 0.8920 0.8900
1925.003093 0.8900 0.8900 0.8900 0.8920 0.8920
1929.690601 0.8930 0.8930 0.8930 0.8950 0.8960
1934.378109 0.8960 0.8950 0.8950 0.8860 0.8830
1939.065617 0.8800 0.8790 0.8790 0.8790 0.8790
1943.753124 0.8800 0.8800 0.8810 0.8810 0.8810
1948.440632 0.8830 0.8830 0.8830 0.8830 0.8810
1953.128140 0.8810 0.8800 0.8800 0.8770 0.8770
1957.815648 0.8760 0.8740 0.8730 0.8730 0.8730
1962.503156 0.8710 0.8710 0.8710 0.8710 0.8730
1967.190664 0.8730 0.8730 0.8740 0.8740 0.8760
1971.878172 0.8790 0.8810 0.8800 0.8800 0.8790
1976.565680 0.8550 0.8410 0.8330 0.8410 0.8840
1981.253187 0.8840 0.8770 0.8710 0.8670 0.8640
1985.940695 0.8640 0.8640 0.8650 0.8650 0.8670
1990.628203 0.8710 0.8740 0.8770 0.8810 0.8840
1995.315711 0.8860 0.8890 0.8900 0.8920 0.8930
2000.003219 0.8960 0.8960 0.8960 0.8960 0.8960
2004.690727 0.8965 0.8970 0.8970 0.8970 0.8980
2009.378235 0.8990 0.8990 0.8990 0.8990 0.8990
2014.065743 0.8990 0.8990 0.8990 0.8990 0.8990
2018.753250 0.8990 0.8990 0.8990 0.8990 0.8990
2023.440758 0.8990 0.8990 0.8990 0.8990 0.8990
2028.128266 0.8990 0.8990 0.8990 0.8981 0.8971
2032.815774 0.8970 0.8970 0.8965 0.8961 0.8960
2037.503282 0.8960 0.8955 0.8950 0.8941 0.8931
2042.190790 0.8926 0.8921 0.8911 0.8901 0.8882
2046.878298 0.8862 0.8851 0.8841 0.8823 0.8803
2051.565806 0.8783 0.8763 0.8734 0.8704 0.8666
2056.253314 0.8625 0.8590 0.8555 0.8533 0.8513
2060.940821 0.8497 0.8482 0.8429 0.8369 0.8280
2065.628329 0.8186 0.8099 0.8014 0.7988 0.7973
2070.315837 0.7962 0.7952 0.7881 0.7796 0.7739
2075.003345 0.7689 0.7639 0.7589 0.7568 0.7553
2079.690853 0.7542 0.7532 0.7530 0.7530 0.7538
2084.378361 0.7548 0.7562 0.7577 0.7596 0.7616
2089.065869 0.7585 0.7540 0.7495 0.7451 0.7421
2093.753377 0.7396 0.7316 0.7221 0.7273 0.7368
2098.440884 0.7463 0.7557 0.7622 0.7676 0.7698
2103.128392 0.7707 0.7729 0.7754 0.7793 0.7838
2107.815900 0.7887 0.7936 0.7968 0.7993 0.8015
2112.503408 0.8035 0.8047 0.8057 0.8038 0.8008
2117.190916 0.7993 0.7983 0.7976 0.7971 0.7974
2121.878424 0.7979 0.7990 0.8005 0.8020 0.8035
2126.565932 0.8037 0.8032 0.8013 0.7988 0.7953
2131.253440 0.7912 0.7859 0.7799 0.7739 0.7679
2135.940948 0.7660 0.7660 0.7890 0.8234 0.8350
2140.628455 0.8350 0.8216 0.8011 0.7930 0.7915
2145.315963 0.7916 0.7926 0.8013 0.8142 0.8200
2150.003471 0.8215 0.8243 0.8277 0.8373 0.8502
2154.690979 0.8600 0.8680 0.8719 0.8734 0.8762
2159.378487 0.8797 0.8819 0.8834 0.8855 0.8880
2164.065995 0.8893 0.8898 0.8900 0.8900 0.8897
2168.753503 0.8892 0.8890 0.8890 0.8899 0.8914
2173.441011 0.8932 0.8952 0.8995 0.9055 0.9080
2178.128518 0.9080 0.9083 0.9088 0.9096 0.9106
2182.816026 0.9116 0.9125 0.9135 0.9145 0.9150
2187.503534 0.9150 0.9153 0.9158 0.9160 0.9160
2192.191042 0.9165 0.9175 0.9180 0.9180 0.9183
2196.878550 0.9188 0.9190 0.9190 0.9195 0.9205
2201.566058 0.9210 0.9210 0.9213 0.9217 0.9220
2206.253566 0.9220 0.9220 0.9220 0.9220 0.9220
2210.941074 0.9220 0.9220 0.9225 0.9235 0.9240
2215.628581 0.9240 0.9240 0.9240 0.9240 0.9240
2220.316089 0.9240 0.9240 0.9240 0.9240 0.9240
2225.003597 0.9240 0.9240 0.9240 0.9240 0.9240
2229.691105 0.9240 0.9240 0.9240 0.9240 0.9240
2234.378613 0.9240 0.9240 0.9240 0.9240 0.9240
2239.066121 0.9240 0.9240 0.9240 0.9240 0.9240
2243.753629 0.9240 0.9240 0.9240 0.9236 0.9226
2248.441137 0.9220 0.9220 0.9220 0.9220 0.9218
2253.128645 0.9213 0.9210 0.9210 0.9210 0.9210
2257.816152 0.9206 0.9196 0.9190 0.9190 0.9190
2262.503660 0.9190 0.9188 0.9183 0.9176 0.9166
2267.191168 0.9160 0.9160 0.9160 0.9160 0.9158
2271.878676 0.9153 0.9150 0.9150 0.9147 0.9137
2276.566184 0.9130 0.9130 0.9128 0.9123 0.9120
2281.253692 0.9120 0.9118 0.9113 0.9105 0.9090
2285.941200 0.9075 0.9060 0.9050 0.9050 0.9050
2290.628708 0.9050 0.9050 0.9050 0.9050 0.9050
2295.316215 0.9050 0.9050 0.9050 0.9050 0.9046
2300.003723 0.9031 0.9017 0.9007 0.8996 0.8981
2304.691231 0.8967 0.8957 0.8950 0.8950 0.8950
2309.378739 0.8950 0.8950 0.8950 0.8948 0.8938
2314.066247 0.8930 0.8930 0.8930 0.8930 0.8929
2318.753755 0.8924 0.8920 0.8920 0.8918 0.8908
2323.441263 0.8899 0.8894 0.8887 0.8872 0.8858
2328.128771 0.8848 0.8840 0.8840 0.8836 0.8816
2332.816279 0.8797 0.8782 0.8769 0.8764 0.8757
2337.503786 0.8742 0.8727 0.8712 0.8698 0.8688
2342.191294 0.8677 0.8662 0.8647 0.8632 0.8619
2346.878802 0.8614 0.8608 0.8593 0.8578 0.8563
2351.566310 0.8548 0.8533 0.8520 0.8520 0.8521
2356.253818 0.8531 0.8538 0.8523 0.8509 0.8499
2360.941326 0.8489 0.8484 0.8480 0.8480 0.8480
2365.628834 0.8480 0.8481 0.8486 0.8490 0.8490
2370.316342 0.8488 0.8473 0.8460 0.8460 0.8461
2375.003849 0.8471 0.8484 0.8519 0.8555 0.8599
2379.691357 0.8642 0.8662 0.8682 0.8707 0.8732
2384.378865 0.8752 0.8773 0.8808 0.8841 0.8851
2389.066373 0.8860 0.8860 0.8860 0.8860 0.8860
2393.753881 0.8860 0.8859 0.8849 0.8840 0.8840
2398.441389 0.8840 0.8835 0.8830 0.8820 0.8810
2403.128897 0.8805 0.8800 0.8800 0.8800 0.8805
2407.816405 0.8810 0.8810 0.8810 0.8810 0.8810
2412.503913 0.8805 0.8800 0.8800 0.8800 0.8780
2417.191420 0.8760 0.8745 0.8730 0.8735 0.8740
2421.878928 0.8770 0.8800 0.8800 0.8800 0.8815
2426.566436 0.8830 0.8849 0.8869 0.8880 0.8890
2431.253944 0.8924 0.8959 0.8994 0.9029 0.9059
2435.941452 0.9089 0.9109 0.9129 0.9130 0.9130
2440.628960 0.9144 0.9159 0.9169 0.9179 0.9185
2445.316468 0.9190 0.9190 0.9190 0.9199 0.9209
2450.003976 0.9215 0.9220 0.9220 0.9220 0.9229
2454.691483 0.9239 0.9240 0.9240 0.9240 0.9240
2459.378991 0.9240 0.9240 0.9240 0.9240 0.9244
2464.066499 0.9249 0.9250 0.9250 0.9259 0.9269
2468.754007 0.9270 0.9270 0.9274 0.9279 0.9280
2473.441515 0.9280 0.9280 0.9280 0.9280 0.9280
2478.129023 0.9280 0.9280 0.9280 0.9280 0.9280
2482.816531 0.9280 0.9280 0.9280 0.9276 0.9271
2487.504039 0.9270 0.9270 0.9270 0.9270 0.9262
2492.191546 0.9252 0.9246 0.9241 0.9228 0.9213
2496.879054 0.9202 0.9192 0.9178 0.9163 0.9156
2501.566562 0.9151 0.9142 0.9132 0.9130 0.9130
2506.254070 0.9130 0.9130 0.9126 0.9121 0.9120
2510.941578 0.9120 0.9116 0.9111 0.9110 0.9110
2515.629086 0.9099 0.9084 0.9080 0.9080 0.9080
2520.316594 0.9080 0.9080 0.9080 0.9073 0.9063
2525.004102 0.9060 0.9060 0.9060 0.9060 0.9067
2529.691610 0.9077 0.9084 0.9089 0.9097 0.9107
2534.379117 0.9110 0.9110 0.9117 0.9127 0.9141
2539.066625 0.9156 0.9171 0.9185 0.9207 0.9232
2543.754133 0.9250 0.9266 0.9281 0.9296 0.9300
2548.441641 0.9300 0.9293 0.9283 0.9280 0.9280
2553.129149 0.9280 0.9280 0.9277 0.9272 0.9270
2557.816657 0.9270 0.9263 0.9253 0.9250 0.9250
2562.504165 0.9247 0.9242 0.9240 0.9240 0.9233
2567.191673 0.9224 0.9220 0.9220 0.9220 0.9220
2571.879180 0.9220 0.9220 0.9220 0.9220 0.9217
2576.566688 0.9212 0.9210 0.9210 0.9204 0.9194
2581.254196 0.9190 0.9190 0.9190 0.9190 0.9190
2585.941704 0.9190 0.9190 0.9190 0.9190 0.9190
2590.629212 0.9187 0.9182 0.9174 0.9164 0.9160
2595.316720 0.9160 0.9160 0.9160 0.9160 0.9160
2600.004228 0.9160 0.9160 0.9157 0.9152 0.9153
2604.691736 0.9158 0.9160 0.9160 0.9160 0.9160
2609.379244 0.9160 0.9160 0.9160 0.9160 0.9160
2614.066751 0.9160 0.9160 0.9160 0.9165 0.9175
2618.754259 0.9180 0.9180 0.9180 0.9180 0.9180
2623.441767 0.9180 0.9180 0.9180 0.9175 0.9165
2628.129275 0.9160 0.9160 0.9160 0.9160 0.9160
2632.816783 0.9160 0.9160 0.9160 0.9160 0.9160
2637.504291 0.9160 0.9160 0.9160 0.9160 0.9160
2642.191799 0.9160 0.9160 0.9160 0.9160 0.9160
2646.879307 0.9158 0.9153 0.9150 0.9150 0.9150
2651.566814 0.9150 0.9150 0.9150 0.9150 0.9150
2656.254322 0.9150 0.9150 0.9150 0.9150 0.9146
2660.941830 0.9136 0.9130 0.9130 0.9130 0.9130
2665.629338 0.9130 0.9130 0.9130 0.9130 0.9128
2670.316846 0.9123 0.9120 0.9120 0.9118 0.9113
2675.004354 0.9106 0.9096 0.9090 0.9090 0.9088
2679.691862 0.9083 0.9076 0.9066 0.9060 0.9060
2684.379370 0.9055 0.9040 0.9025 0.9010 0.8998
2689.066877 0.8993 0.8987 0.8977 0.8968 0.8963
2693.754385 0.8958 0.8953 0.8947 0.8937 0.8928
2698.441893 0.8923 0.8920 0.8920 0.8917 0.8907
2703.129401 0.8898 0.8893 0.8890 0.8890 0.8887
2707.816909 0.8877 0.8868 0.8864 0.8857 0.8847
2712.504417 0.8839 0.8834 0.8830 0.8830 0.8826
2717.191925 0.8811 0.8796 0.8781 0.8770 0.8770
2721.879433 0.8770 0.8770 0.8769 0.8764 0.8760
2726.566941 0.8760 0.8760 0.8760 0.8760 0.8760
2731.254448 0.8760 0.8760 0.8760 0.8760 0.8761
2735.941956 0.8766 0.8770 0.8770 0.8774 0.8789
2740.629464 0.8803 0.8818 0.8833 0.8848 0.8863
2745.316972 0.8878 0.8893 0.8908 0.8923 0.8938
2750.004480 0.8950 0.8950 0.8952 0.8962 0.8972
2754.691988 0.8982 0.8991 0.8996 0.9000 0.9000
2759.379496 0.9000 0.9000 0.8999 0.8994 0.8984
2764.067004 0.8949 0.8920 0.8920 0.8924 0.8949
2768.754511 0.8972 0.8987 0.9002 0.9012 0.9021
2773.442019 0.9026 0.9030 0.9030 0.9030 0.9030
2778.129527 0.9030 0.9030 0.9030 0.9030 0.9030
2782.817035 0.9030 0.9030 0.9030 0.9029 0.9024
2787.504543 0.9020 0.9020 0.9020 0.9020 0.9019
2792.192051 0.9009 0.9000 0.9000 0.8999 0.8994
2796.879559 0.8989 0.8979 0.8970 0.8965 0.8960
2801.567067 0.8955 0.8949 0.8939 0.8930 0.8925
2806.254575 0.8919 0.8904 0.8889 0.8879 0.8869
2810.942082 0.8854 0.8838 0.8803 0.8768 0.8738
2815.629590 0.8708 0.8673 0.8639 0.8624 0.8610
2820.317098 0.8605 0.8599 0.8574 0.8547 0.8453
2825.004606 0.8358 0.8262 0.8169 0.8129 0.8088
2829.692114 0.8034 0.7978 0.7898 0.7819 0.7734
2834.379622 0.7649 0.7529 0.7410 0.7320 0.7230
2839.067130 0.7215 0.7200 0.7200 0.7200 0.7205
2843.754638 0.7210 0.7210 0.7210 0.7136 0.7061
2848.442145 0.7060 0.7060 0.7255 0.7454 0.7571
2853.129653 0.7686 0.7488 0.7279 0.7046 0.6811
2857.817161 0.6696 0.6586 0.6561 0.6541 0.6545
2862.504669 0.6550 0.6635 0.6725 0.6834 0.6944
2867.192177 0.7053 0.7163 0.7170 0.7170 0.7156
2871.879685 0.7141 0.7044 0.6939 0.6912 0.6892
2876.567193 0.6922 0.6957 0.6924 0.6884 0.6827
2881.254701 0.6767 0.6550 0.6313 0.6083 0.5854
2885.942208 0.5794 0.5754 0.5723 0.5694 0.5615
2890.629716 0.5530 0.5210 0.4856 0.4732 0.4642
2895.317224 0.4557 0.4472 0.4383 0.4293 0.4267
2900.004732 0.4252 0.3982 0.3665 0.3359 0.3055
2904.692240 0.2883 0.2733 0.2702 0.2692 0.2677
2909.379748 0.2663 0.2635 0.2605 0.2514 0.2409
2914.067256 0.2198 0.1964 0.1803 0.1658 0.1558
2918.754764 0.1468 0.1394 0.1323 0.1128 0.0903
2923.442272 0.0828 0.0788 0.0776 0.0771 0.0762
2928.129779 0.0752 0.0758 0.0768 0.0797 0.0832
2932.817287 0.0867 0.0902 0.0983 0.1077 0.1168
2937.504795 0.1258 0.1280 0.1280 0.1261 0.1236
2942.192303 0.1109 0.0949 0.0869 0.0814 0.0755
2946.879811 0.0695 0.0636 0.0576 0.0556 0.0551
2951.567319 0.0554 0.0559 0.0600 0.0654 0.0706
2956.254827 0.0755 0.0806 0.0856 0.0895 0.0930
2960.942335 0.0961 0.0991 0.1071 0.1170 0.1319
2965.629842 0.1489 0.1474 0.1379 0.1340 0.1325
2970.317350 0.1327 0.1337 0.1559 0.1883 0.1977
2975.004858 0.1957 0.1943 0.1933 0.1927 0.1922
2979.692366 0.1913 0.1903 0.1950 0.2024 0.2145
2984.379874 0.2290 0.2444 0.2604 0.2792 0.2996
2989.067382 0.3143 0.3258 0.3344 0.3414 0.3443
2993.754890 0.3448 0.3522 0.3638 0.3750 0.3859
2998.442398 0.3938 0.3997 0.4054 0.4109 0.4197
3003.129906 0.4307 0.4480 0.4694 0.4699 0.4565
3007.817413 0.4288 0.3914 0.3578 0.3269 0.2798
3012.504921 0.2210 0.1957 0.1952 0.2305 0.2908
3017.192429 0.3334 0.3633 0.3929 0.4223 0.4319
3021.879937 0.4264 0.4206 0.4147 0.4065 0.3965
3026.567445 0.3904 0.3874 0.3852 0.3837 0.3833
3031.254953 0.3838 0.3875 0.3940 0.3986 0.4016
3035.942461 0.4046 0.4076 0.4122 0.4182 0.4422
3040.629969 0.4825 0.4736 0.4188 0.3940 0.3980
3045.317476 0.4020 0.4060 0.4090 0.4110 0.4164
3050.004984 0.4254 0.4395 0.4592 0.4795 0.5004
3054.692492 0.5157 0.5251 0.5361 0.5485 0.5552
3059.380000 0.5557 0.5661 0.5876 0.6088 0.6297
3064.067508 0.6499 0.6694 0.6893 0.7097 0.7301
3068.755016 0.7506 0.7684 0.7830 0.7967 0.8091
3073.442524 0.8180 0.8225 0.8259 0.8279 0.8292
3078.130032 0.8297 0.8304 0.8314 0.8322 0.8327
3082.817539 0.8336 0.8351 0.8364 0.8374 0.8386
3087.505047 0.8401 0.8410 0.8410 0.8412 0.8417
3092.192555 0.8424 0.8434 0.8440 0.8440 0.8440
3096.880063 0.8440 0.8440 0.8440 0.8436 0.8426
3101.567571 0.8420 0.8420 0.8418 0.8413 0.8406
3106.255079 0.8396 0.8390 0.8390 0.8388 0.8383
3110.942587 0.8371 0.8346 0.8325 0.8310 0.8303
3115.630095 0.8313 0.8330 0.8360 0.8382 0.8387
3120.317603 0.8398 0.8423 0.8443 0.8453 0.8465
3125.005110 0.8480 0.8495 0.8510 0.8525 0.8540
3129.692618 0.8561 0.8596 0.8609 0.8574 0.8544
3134.380126 0.8524 0.8506 0.8491 0.8481 0.8486
3139.067634 0.8501 0.8541 0.8581 0.8621 0.8658
3143.755142 0.8688 0.8722 0.8767 0.8808 0.8838
3148.442650 0.8868 0.8898 0.8927 0.8951 0.8978
3153.130158 0.9008 0.9036 0.9061 0.9085 0.9105
3157.817666 0.9120 0.9120 0.9121 0.9126 0.9132
3162.505173 0.9142 0.9151 0.9156 0.9160 0.9160
3167.192681 0.9162 0.9172 0.9181 0.9186 0.9192
3171.880189 0.9202 0.9211 0.9216 0.9223 0.9238
3176.567697 0.9250 0.9250 0.9252 0.9262 0.9270
3181.255205 0.9270 0.9271 0.9276 0.9280 0.9280
3185.942713 0.9280 0.9280 0.9280 0.9280 0.9280
3190.630221 0.9280 0.9282 0.9292 0.9300 0.9300
3195.317729 0.9301 0.9306 0.9310 0.9310 0.9310
3200.005237 0.9310 0.9310 0.9310 0.9311 0.9316
3204.692744 0.9320 0.9320 0.9320 0.9320 0.9320
3209.380252 0.9320 0.9321 0.9331 0.9340 0.9340
3214.067760 0.9340 0.9340 0.9340 0.9340 0.9340
3218.755268 0.9345 0.9350 0.9350 0.9350 0.9350
3223.442776 0.9350 0.9350 0.9350 0.9350 0.9350
3228.130284 0.9345 0.9340 0.9340 0.9340 0.9340
3232.817792 0.9340 0.9340 0.9340 0.9330 0.9320
3237.505300 0.9320 0.9320 0.9315 0.9310 0.9310
3242.192807 0.9310 0.9310 0.9310 0.9305 0.9300
3246.880315 0.9300 0.9300 0.9300 0.9300 0.9290
3251.567823 0.9280 0.9280 0.9280 0.9275 0.9270
3256.255331 0.9270 0.9270 0.9260 0.9250 0.9250
3260.942839 0.9250 0.9260 0.9270 0.9275 0.9280
3265.630347 0.9290 0.9300 0.9300 0.9300 0.9305
3270.317855 0.9310 0.9315 0.9320 0.9330 0.9340
3275.005363 0.9340 0.9340 0.9345 0.9350 0.9350
3279.692870 0.9350 0.9360 0.9370 0.9370 0.9370
3284.380378 0.9375 0.9380 0.9380 0.9380 0.9389
3289.067886 0.9399 0.9405 0.9410 0.9410 0.9410
3293.755394 0.9419 0.9429 0.9435 0.9440 0.9440
3298.442902 0.9440 0.9440 0.9440 0.9449 0.9459
3303.130410 0.9460 0.9460 0.9460 0.9460 0.9460
3307.817918 0.9460 0.9460 0.9460 0.9460 0.9460
3312.505426 0.9460 0.9460 0.9460 0.9460 0.9460
3317.192934 0.9460 0.9460 0.9460 0.9460 0.9460
3321.880441 0.9460 0.9460 0.9460 0.9460 0.9460
3326.567949 0.9460 0.9460 0.9460 0.9460 0.9460
3331.255457 0.9460 0.9460 0.9460 0.9460 0.9452
3335.942965 0.9442 0.9440 0.9440 0.9440 0.9440
3340.630473 0.9440 0.9440 0.9440 0.9440 0.9440
3345.317981 0.9440 0.9440 0.9440 0.9440 0.9440
3350.005489 0.9440 0.9440 0.9440 0.9440 0.9440
3354.692997 0.9440 0.9448 0.9458 0.9460 0.9460
3359.380504 0.9460 0.9460 0.9464 0.9469 0.9470
3364.068012 0.9470 0.9470 0.9470 0.9470 0.9470
3368.755520 0.9470 0.9470 0.9470 0.9470 0.9474
3373.443028 0.9479 0.9480 0.9480 0.9480 0.9480
3378.130536 0.9480 0.9480 0.9480 0.9480 0.9480
3382.818044 0.9480 0.9480 0.9480 0.9480 0.9480
3387.505552 0.9480 0.9480 0.9480 0.9480 0.9480
3392.193060 0.9480 0.9480 0.9480 0.9480 0.9480
3396.880568 0.9480 0.9480 0.9480 0.9480 0.9480
3401.568075 0.9480 0.9480 0.9480 0.9474 0.9464
3406.255583 0.9460 0.9460 0.9460 0.9460 0.9460
3410.943091 0.9460 0.9454 0.9444 0.9437 0.9432
3415.630599 0.9430 0.9430 0.9424 0.9414 0.9410
3420.318107 0.9410 0.9407 0.9402 0.9400 0.9400
3425.005615 0.9400 0.9400 0.9400 0.9400 0.9400
3429.693123 0.9400 0.9394 0.9384 0.9377 0.9372
3434.380631 0.9370 0.9370 0.9364 0.9354 0.9350
3439.068138 0.9350 0.9347 0.9342 0.9340 0.9340
3443.755646 0.9334 0.9325 0.9320 0.9320 0.9314
3448.443154 0.9304 0.9294 0.9285 0.9269 0.9249
3453.130662 0.9227 0.9202 0.9187 0.9182 0.9172
3457.818170 0.9157 0.9127 0.9082 0.9045 0.9015
3462.505678 0.8975 0.8925 0.8877 0.8832 0.8810
3467.193186 0.8810 0.8749 0.8629 0.8540 0.8480
3471.880694 0.8413 0.8338 0.8227 0.8077 0.7993
3476.568202 0.7978 0.7977 0.7992 0.8014 0.8044
3481.255709 0.8046 0.8016 0.7995 0.7985 0.7980
3485.943217 0.7980 0.7987 0.8002 0.8033 0.8083
3490.630725 0.8144 0.8218 0.8322 0.8462 0.8466
3495.318233 0.8296 0.8163 0.8079 0.7990 0.7895
3500.005741 0.7802 0.7713 0.7621 0.7525 0.7504
3504.693249 0.7584 0.7676 0.7786 0.7910 0.8054
3509.380757 0.8237 0.8476 0.8690 0.8864 0.9011
3514.068265 0.9116 0.9182 0.9187 0.9205 0.9245
3518.755772 0.9279 0.9304 0.9324 0.9334 0.9346
3523.443280 0.9361 0.9376 0.9391 0.9406 0.9420
3528.130788 0.9432 0.9437 0.9444 0.9454 0.9462
3532.818296 0.9467 0.9472 0.9477 0.9480 0.9480
3537.505804 0.9483 0.9493 0.9500 0.9500 0.9500
3542.193312 0.9500 0.9500 0.9500 0.9500 0.9500
3546.880820 0.9500 0.9500 0.9500 0.9500 0.9500
3551.568328 0.9500 0.9500 0.9500 0.9500 0.9500
3556.255835 0.9500 0.9500 0.9500 0.9500 0.9500
3560.943343 0.9500 0.9500 0.9500 0.9500 0.9500
3565.630851 0.9500 0.9500 0.9500 0.9500 0.9500
3570.318359 0.9500 0.9500 0.9500 0.9498 0.9488
3575.005867 0.9480 0.9480 0.9479 0.9474 0.9466
3579.693375 0.9451 0.9440 0.9440 0.9439 0.9434
3584.380883 0.9431 0.9436 0.9442 0.9452 0.9461
3589.068391 0.9466 0.9473 0.9488 0.9500 0.9500
3593.755899 0.9500 0.9500 0.9498 0.9488 0.9479
3598.443406 0.9474 0.9470 0.9470 0.9469 0.9464
3603.130914 0.9460 0.9460 0.9460 0.9460 0.9458
3607.818422 0.9448 0.9440 0.9440 0.9440 0.9440
3612.505930 0.9439 0.9434 0.9430 0.9430 0.9431
3617.193438 0.9436 0.9442 0.9457 0.9471 0.9476
3621.880946 0.9477 0.9457 0.9438 0.9423 0.9399
3626.568454 0.9315 0.9238 0.9223 0.9211 0.9216
3631.255962 0.9224 0.9264 0.9304 0.9344 0.9380
3635.943469 0.9380 0.9379 0.9374 0.9369 0.9359
3640.630977 0.9350 0.9350 0.9350 0.9345 0.9339
3645.318485 0.9329 0.9315 0.9245 0.9179 0.9164
3650.005993 0.9150 0.9155 0.9161 0.9187 0.9211
3654.693501 0.9226 0.9241 0.9261 0.9280 0.9280
3659.381009 0.9280 0.9290 0.9300 0.9300 0.9299
3664.068517 0.9285 0.9270 0.9260 0.9250 0.9250
3668.756025 0.9250 0.9250 0.9250 0.9250 0.9250
3673.443533 0.9245 0.9239 0.9210 0.9180 0.9155
3678.131040 0.9130 0.9140 0.9150 0.9165 0.9180
3682.818548 0.9195 0.9210 0.9210 0.9210 0.9200
3687.506056 0.9190 0.9185 0.9180 0.9170 0.9160
3692.193564 0.9155 0.9150 0.9140 0.9130 0.9140
3696.881072 0.9150 0.9155 0.9160 0.9170 0.9179
3701.568580 0.9194 0.9209 0.9215 0.9220 0.9229
3706.256088 0.9239 0.9245 0.9250 0.9250 0.9250
3710.943596 0.9250 0.9250 0.9250 0.9250 0.9250
3715.631103 0.9250 0.9259 0.9269 0.9284 0.9299
3720.318611 0.9304 0.9309 0.9310 0.9310 0.9310
3725.006119 0.9310 0.9310 0.9310 0.9314 0.9319
3729.693627 0.9320 0.9320 0.9320 0.9320 0.9329
3734.381135 0.9339 0.9340 0.9340 0.9331 0.9321
3739.068643 0.9303 0.9283 0.9242 0.9197 0.9177
3743.756151 0.9162 0.9168 0.9178 0.9209 0.9245
3748.443659 0.9279 0.9314 0.9333 0.9347 0.9358
3753.131166 0.9368
##END=
