##TITLE=2-PROPEN-1-OL
##JCAMP-DX=4.24
##DATA TYPE=INFRARED SPECTRUM
##CLASS=COBLENTZ
##ORIGIN=DOW CHEMICAL COMPANY
##OWNER=COBLENTZ SOCIETY
Collection (C) 2018 copyright by the U.S. Secretary of Commerce
on behalf of the United States of America. All rights reserved.
##DATE=1964/03/11
##NAMES=ALLYL ALCOHOL
##CAS REGISTRY NO=107-18-6
##MOLFORM=C3 H6 O
##SOURCE REFERENCE=COBLENTZ NO. 10478
##$NIST SOURCE=COBLENTZ
##$NIST IMAGE=cob10478
##SPECTROMETER/DATA SYSTEM=BECKMAN IR-9 (GRATING)
##INSTRUMENT PARAMETERS=ORDER CHANGES AT 670, 1200, 2000 CM^-^1
##STATE=GAS (13 mmHg DILUTED TO A TOTAL PRESSURE OF 600 mmHg WITH N2)
##PATH LENGTH=100 CM CELL
##SAMPLING PROCEDURE=TRANSMISSION
##RESOLUTION=4
##DATA PROCESSING=DIGITIZED BY NIST FROM HARD COPY (FROM TWO SEGMENTS)
##XUNITS=1/CM
##YUNITS=TRANSMITTANCE
##XFACTOR=1.000000
##YFACTOR=1
##DELTAX=0.888326
##FIRSTX=398.35
##LASTX=3793.53
##FIRSTY=0.555
##MAXX=3793.53
##MINX=398.35
##MAXY=0.968
##MINY=0.001
##NPOINTS=3823
##XYDATA=(X++(Y..Y))
398.350000 0.5550 0.5540 0.5510 0.5480 0.5470
402.791629 0.5450 0.5420 0.5380 0.5360 0.5330
407.233258 0.5300 0.5260 0.5200 0.5160 0.5120
411.674887 0.5090 0.5060 0.5050 0.5040 0.5010
416.116516 0.5000 0.4980 0.4950 0.4940 0.4930
420.558146 0.4910 0.4900 0.4880 0.4880 0.4860
424.999775 0.4860 0.4840 0.4830 0.4830 0.4810
429.441404 0.4800 0.4800 0.4790 0.4790 0.4790
433.883033 0.4790 0.4790 0.4790 0.4790 0.4790
438.324662 0.4800 0.4800 0.4810 0.4810 0.4830
442.766291 0.4830 0.4860 0.4860 0.4880 0.4900
447.207920 0.4910 0.4970 0.4980 0.5010 0.5040
451.649549 0.5050 0.5060 0.5110 0.5130 0.5160
456.091178 0.5200 0.5240 0.5270 0.5310 0.5340
460.532807 0.5400 0.5410 0.5410 0.5410 0.5410
464.974437 0.5410 0.5420 0.5420 0.5440 0.5440
469.416066 0.5470 0.5470 0.5490 0.5520 0.5560
473.857695 0.5650 0.5670 0.5690 0.5670 0.5660
478.299324 0.5660 0.5650 0.5650 0.5630 0.5630
482.740953 0.5630 0.5650 0.5700 0.5730 0.5740
487.182582 0.5740 0.5740 0.5740 0.5730 0.5720
491.624211 0.5720 0.5730 0.5740 0.5740 0.5740
496.065840 0.5760 0.5760 0.5740 0.5720 0.5670
500.507469 0.5670 0.5730 0.5810 0.5870 0.5810
504.949098 0.5740 0.5810 0.5840 0.5870 0.5870
509.390728 0.5880 0.5880 0.5870 0.5840 0.5770
513.832357 0.5740 0.5730 0.5740 0.5760 0.5850
518.273986 0.5900 0.5990 0.6010 0.5950 0.5920
522.715615 0.5850 0.5830 0.5850 0.6020 0.6060
527.157244 0.6050 0.6030 0.5990 0.5980 0.5980
531.598873 0.5980 0.5990 0.5990 0.6010 0.6010
536.040502 0.6020 0.6030 0.6030 0.6030 0.6030
540.482131 0.6030 0.6050 0.6050 0.6050 0.6050
544.923760 0.6050 0.6050 0.6030 0.6020 0.5980
549.365389 0.5770 0.5450 0.5020 0.5020 0.5220
553.807019 0.5410 0.5580 0.5739 0.6079 0.6170
558.248648 0.6190 0.6230 0.6300 0.6410 0.6480
562.690277 0.6550 0.6590 0.6590 0.6620 0.6680
567.131906 0.6740 0.6780 0.6800 0.6820 0.6910
571.573535 0.6990 0.7060 0.7070 0.7100 0.7239
576.015164 0.7270 0.7310 0.7320 0.7340 0.7400
580.456793 0.7490 0.7540 0.7570 0.7570 0.7590
584.898422 0.7590 0.7600 0.7600 0.7600 0.7640
589.340051 0.7720 0.7830 0.7920 0.8000 0.8010
593.781680 0.8010 0.8030 0.8040 0.8060 0.8060
598.223310 0.8110 0.8130 0.8180 0.8190 0.8190
602.664939 0.8170 0.8080 0.8060 0.7970 0.7950
607.106568 0.7930 0.7950 0.7960 0.7970 0.8000
611.548197 0.8000 0.7990 0.7970 0.7960 0.7950
615.989826 0.7950 0.7960 0.7970 0.7990 0.8000
620.431455 0.8000 0.8000 0.8010 0.8030 0.8030
624.873084 0.8030 0.8030 0.8010 0.8010 0.8010
629.314713 0.8030 0.8010 0.8010 0.8000 0.7990
633.756342 0.7970 0.7950 0.7950 0.7930 0.7930
638.197971 0.7930 0.7930 0.7950 0.7950 0.7950
642.639601 0.7960 0.7970 0.7970 0.8010 0.8030
647.081230 0.8040 0.8080 0.8110 0.8150 0.8180
651.522859 0.8210 0.8250 0.8310 0.8310 0.8350
655.964488 0.8370 0.8400 0.8430 0.8460 0.8500
660.406117 0.8510 0.8570 0.8670 0.8680 0.8690
664.847746 0.8710 0.8710 0.8720 0.8730 0.8750
669.289375 0.8750 0.8750 0.8760 0.8760 0.8780
673.731004 0.8780 0.8780 0.8790 0.8790 0.8800
678.172633 0.8800 0.8820 0.8820 0.8820 0.8830
682.614262 0.8830 0.8850 0.8850 0.8850 0.8860
687.055892 0.8860 0.8870 0.8870 0.8890 0.8890
691.497521 0.8900 0.8900 0.8910 0.8910 0.8930
695.939150 0.8930 0.8940 0.8940 0.8960 0.8960
700.380779 0.8970 0.8970 0.8980 0.8980 0.9000
704.822408 0.9000 0.9010 0.9010 0.9010 0.9030
709.264037 0.9040 0.9050 0.9070 0.9080 0.9080
713.705666 0.9090 0.9110 0.9120 0.9140 0.9140
718.147295 0.9150 0.9150 0.9150 0.9160 0.9160
722.588924 0.9160 0.9180 0.9180 0.9180 0.9190
727.030553 0.9190 0.9190 0.9210 0.9210 0.9210
731.472183 0.9220 0.9220 0.9220 0.9230 0.9230
735.913812 0.9230 0.9230 0.9250 0.9250 0.9250
740.355441 0.9250 0.9260 0.9260 0.9260 0.9260
744.797070 0.9270 0.9270 0.9270 0.9270 0.9290
749.238699 0.9290 0.9290 0.9290 0.9290 0.9300
753.680328 0.9300 0.9300 0.9300 0.9320 0.9320
758.121957 0.9320 0.9320 0.9330 0.9330 0.9330
762.563586 0.9330 0.9340 0.9340 0.9340 0.9360
767.005215 0.9360 0.9360 0.9360 0.9370 0.9370
771.446844 0.9370 0.9370 0.9390 0.9390 0.9390
775.888474 0.9390 0.9400 0.9400 0.9400 0.9400
780.330103 0.9410 0.9410 0.9410 0.9410 0.9430
784.771732 0.9430 0.9430 0.9440 0.9440 0.9440
789.213361 0.9440 0.9440 0.9440 0.9450 0.9450
793.654990 0.9450 0.9450 0.9450 0.9470 0.9470
798.096619 0.9470 0.9470 0.9470 0.9470 0.9480
802.538248 0.9480 0.9480 0.9480 0.9480 0.9500
806.979877 0.9500 0.9500 0.9500 0.9500 0.9510
811.421506 0.9510 0.9510 0.9510 0.9510 0.9510
815.863135 0.9510 0.9510 0.9510 0.9510 0.9510
820.304765 0.9510 0.9500 0.9500 0.9500 0.9500
824.746394 0.9500 0.9500 0.9480 0.9480 0.9480
829.188023 0.9480 0.9470 0.9450 0.9440 0.9430
833.629652 0.9400 0.9400 0.9400 0.9400 0.9390
838.071281 0.9370 0.9360 0.9340 0.9330 0.9300
842.512910 0.9300 0.9290 0.9270 0.9250 0.9230
846.954539 0.9220 0.9210 0.9190 0.9180 0.9160
851.396168 0.9150 0.9110 0.9070 0.9040 0.9010
855.837797 0.8960 0.8910 0.8890 0.8830 0.8730
860.279426 0.8620 0.8550 0.8530 0.8500 0.8390
864.721056 0.8350 0.8310 0.8210 0.8150 0.8130
869.162685 0.8010 0.7930 0.7820 0.7770 0.7680
873.604314 0.7640 0.7570 0.7500 0.7400 0.7251
878.045943 0.7210 0.6930 0.6770 0.6630 0.6490
882.487572 0.6320 0.6161 0.5901 0.5631 0.5491
886.929201 0.5240 0.5130 0.4830 0.4580 0.4291
891.370830 0.4031 0.3821 0.3710 0.3461 0.3321
895.812459 0.3170 0.3060 0.2830 0.2650 0.2500
900.254088 0.2390 0.2290 0.2220 0.2140 0.2060
904.695717 0.1860 0.1820 0.1630 0.1590 0.1480
909.137347 0.1340 0.1190 0.1060 0.0980 0.0880
913.578976 0.0770 0.0700 0.0620 0.0490 0.0410
918.020605 0.0240 0.0160 0.0150 0.0160 0.0190
922.462234 0.0230 0.0240 0.0260 0.0260 0.0270
926.903863 0.0290 0.0290 0.0300 0.0300 0.0310
931.345492 0.0310 0.0330 0.0330 0.0340 0.0340
935.787121 0.0370 0.0370 0.0400 0.0410 0.0440
940.228750 0.0470 0.0490 0.0510 0.0550 0.0630
944.670379 0.0670 0.0720 0.0780 0.0800 0.0920
949.112008 0.1030 0.1200 0.1260 0.1410 0.1490
953.553638 0.1600 0.1730 0.1780 0.1840 0.1920
957.995267 0.2000 0.2060 0.2140 0.2180 0.2210
962.436896 0.2220 0.2250 0.2270 0.2310 0.2350
966.878525 0.2380 0.2390 0.2390 0.2210 0.2110
971.320154 0.2100 0.2090 0.2060 0.2000 0.1821
975.761783 0.1670 0.1560 0.1460 0.1340 0.1130
980.203412 0.0960 0.0840 0.0780 0.0780 0.0730
984.645041 0.0690 0.0660 0.0630 0.0620 0.0590
989.086670 0.0550 0.0540 0.0510 0.0480 0.0470
993.528299 0.0470 0.0450 0.0440 0.0440 0.0420
997.969929 0.0420 0.0420 0.0420 0.0410 0.0400
1002.411558 0.0380 0.0370 0.0340 0.0330 0.0300
1006.853187 0.0290 0.0290 0.0270 0.0270 0.0260
1011.294816 0.0260 0.0260 0.0240 0.0220 0.0180
1015.736445 0.0160 0.0130 0.0130 0.0120 0.0120
1020.178074 0.0110 0.0090 0.0090 0.0090 0.0080
1024.619703 0.0080 0.0080 0.0060 0.0060 0.0060
1029.061332 0.0050 0.0040 0.0040 0.0040 0.0040
1033.502961 0.0020 0.0020 0.0020 0.0040 0.0040
1037.944590 0.0040 0.0050 0.0060 0.0060 0.0080
1042.386220 0.0080 0.0060 0.0060 0.0040 0.0040
1046.827849 0.0020 0.0010 0.0010 0.0020 0.0090
1051.269478 0.0130 0.0160 0.0310 0.0450 0.0629
1055.711107 0.1010 0.1140 0.1550 0.1919 0.2249
1060.152736 0.2569 0.2859 0.3129 0.3389 0.3619
1064.594365 0.3850 0.4030 0.4220 0.4370 0.4450
1069.035994 0.4580 0.4789 0.4900 0.5000 0.5020
1073.477623 0.5060 0.5120 0.5160 0.5260 0.5290
1077.919252 0.5300 0.5340 0.5340 0.5310 0.5290
1082.360881 0.5260 0.5240 0.5220 0.5180 0.5110
1086.802511 0.5020 0.4930 0.4790 0.4621 0.4431
1091.244140 0.4230 0.4120 0.3910 0.3800 0.3650
1095.685769 0.3510 0.3370 0.3280 0.3151 0.3031
1100.127398 0.2880 0.2780 0.2680 0.2610 0.2600
1104.569027 0.2520 0.2490 0.2450 0.2420 0.2400
1109.010656 0.2390 0.2390 0.2380 0.2360 0.2340
1113.452285 0.2310 0.2240 0.2180 0.2160 0.2130
1117.893914 0.2130 0.2110 0.2110 0.2060 0.1990
1122.335543 0.1930 0.1860 0.1840 0.1820 0.1840
1126.777172 0.1860 0.1890 0.1960 0.2100 0.2140
1131.218802 0.2220 0.2240 0.2280 0.2738 0.2919
1135.660431 0.3150 0.3190 0.3290 0.3330 0.3370
1140.102060 0.3440 0.3500 0.3530 0.3640 0.3819
1144.543689 0.3980 0.4090 0.4330 0.4470 0.4570
1148.985318 0.4650 0.4660 0.5288 0.5489 0.5619
1153.426947 0.5740 0.5810 0.5880 0.6020 0.6120
1157.868576 0.6200 0.6270 0.6310 0.6380 0.6420
1162.310205 0.6440 0.6450 0.6480 0.6490 0.6500
1166.751834 0.6490 0.6480 0.6450 0.6440 0.6370
1171.193463 0.6310 0.6300 0.6210 0.6170 0.6060
1175.635093 0.6010 0.5880 0.5780 0.5760 0.5631
1180.076722 0.5520 0.5480 0.5370 0.5300 0.5270
1184.518351 0.5240 0.5150 0.5110 0.5020 0.5010
1188.959980 0.4950 0.4760 0.4550 0.4390 0.4360
1193.401609 0.4360 0.4360 0.4360 0.4290 0.4161
1197.843238 0.4120 0.4030 0.3910 0.3820 0.3620
1202.284867 0.3610 0.3610 0.3600 0.3600 0.3600
1206.726496 0.3580 0.3580 0.3600 0.3610 0.3640
1211.168125 0.3650 0.3670 0.3670 0.3680 0.3690
1215.609754 0.3710 0.3730 0.3790 0.3830 0.3890
1220.051384 0.3900 0.4000 0.4030 0.4120 0.4190
1224.493013 0.4260 0.4320 0.4390 0.4450 0.4520
1228.934642 0.4620 0.4720 0.4810 0.4999 0.5010
1233.376271 0.5050 0.5110 0.5220 0.5330 0.5410
1237.817900 0.5490 0.5520 0.5620 0.5670 0.5760
1242.259529 0.5770 0.5780 0.5830 0.5910 0.5960
1246.701158 0.6030 0.6140 0.6190 0.6270 0.6320
1251.142787 0.6370 0.6410 0.6420 0.6460 0.6480
1255.584416 0.6530 0.6550 0.6570 0.6590 0.6600
1260.026045 0.6630 0.6670 0.6680 0.6680 0.6700
1264.467675 0.6740 0.6750 0.6780 0.6810 0.6860
1268.909304 0.6910 0.6920 0.6960 0.6990 0.6990
1273.350933 0.7000 0.7030 0.7040 0.7040 0.7060
1277.792562 0.7060 0.7060 0.7070 0.7070 0.7070
1282.234191 0.7060 0.7040 0.7060 0.7030 0.7030
1286.675820 0.7020 0.7000 0.7000 0.6990 0.6960
1291.117449 0.6930 0.6920 0.6910 0.6850 0.6840
1295.559078 0.6810 0.6780 0.6770 0.6740 0.6710
1300.000707 0.6640 0.6600 0.6590 0.6530 0.6450
1304.442336 0.6440 0.6370 0.6300 0.6200 0.6170
1308.883966 0.6160 0.6140 0.6140 0.6130 0.6120
1313.325595 0.6100 0.6090 0.6090 0.6080 0.6080
1317.767224 0.6080 0.6050 0.6020 0.5602 0.5600
1322.208853 0.5950 0.5940 0.5880 0.5810 0.5740
1326.650482 0.5630 0.5550 0.5510 0.5400 0.5370
1331.092111 0.5360 0.5330 0.5310 0.5310 0.5310
1335.533740 0.5310 0.5300 0.5300 0.5290 0.5290
1339.975369 0.5260 0.5090 0.5010 0.4930 0.4830
1344.416998 0.4730 0.4570 0.4361 0.4260 0.4121
1348.858627 0.3970 0.3790 0.3470 0.3240 0.3150
1353.300257 0.2960 0.2790 0.2631 0.2491 0.2361
1357.741886 0.2210 0.2020 0.1810 0.1730 0.1670
1362.183515 0.1640 0.1630 0.1620 0.1620 0.1630
1366.625144 0.1630 0.1630 0.1570 0.1520 0.1420
1371.066773 0.1350 0.1081 0.1080 0.1558 0.1600
1375.508402 0.1620 0.1590 0.1530 0.1460 0.1350
1379.950031 0.1240 0.1190 0.1160 0.1200 0.1280
1384.391660 0.1390 0.1500 0.1670 0.1850 0.2000
1388.833289 0.2140 0.2220 0.2310 0.2380 0.2450
1393.274918 0.2500 0.2540 0.2600 0.2750 0.2830
1397.716548 0.2860 0.2920 0.2960 0.3030 0.3080
1402.158177 0.3110 0.3130 0.3140 0.3150 0.3150
1406.599806 0.3150 0.3130 0.3100 0.3070 0.3040
1411.041435 0.2960 0.2770 0.2670 0.2380 0.2250
1415.483064 0.2220 0.2210 0.2210 0.2200 0.2180
1419.924693 0.2110 0.2070 0.2040 0.2030 0.2040
1424.366322 0.2070 0.2100 0.2110 0.2100 0.2090
1428.807951 0.2060 0.2070 0.2140 0.2220 0.2310
1433.249580 0.2340 0.2380 0.2380 0.2380 0.2350
1437.691209 0.2340 0.2340 0.2360 0.2520 0.2570
1442.132839 0.2740 0.2880 0.3129 0.3389 0.3569
1446.574468 0.3820 0.3980 0.4070 0.4430 0.4789
1451.016097 0.4950 0.5060 0.5160 0.5270 0.5370
1455.457726 0.5480 0.5490 0.5520 0.5650 0.5800
1459.899355 0.6059 0.6060 0.5881 0.5900 0.6010
1464.340984 0.6050 0.6090 0.6100 0.6210 0.6280
1468.782613 0.6300 0.6300 0.6300 0.6310 0.6310
1473.224242 0.6310 0.6320 0.6370 0.6440 0.6440
1477.665871 0.6460 0.6600 0.6700 0.6780 0.6890
1482.107500 0.7000 0.7130 0.7240 0.7280 0.7400
1486.549130 0.7430 0.7470 0.7600 0.7710 0.7770
1490.990759 0.7950 0.8140 0.8170 0.8180 0.8190
1495.432388 0.8220 0.8250 0.8320 0.8420 0.8440
1499.874017 0.8530 0.8620 0.8670 0.8690 0.8710
1504.315646 0.8720 0.8730 0.8730 0.8750 0.8760
1508.757275 0.8860 0.8960 0.9000 0.9070 0.9110
1513.198904 0.9110 0.9120 0.9140 0.9140 0.9150
1517.640533 0.9160 0.9180 0.9180 0.9190 0.9190
1522.082162 0.9210 0.9210 0.9210 0.9210 0.9210
1526.523791 0.9210 0.9210 0.9210 0.9190 0.9190
1530.965421 0.9180 0.9180 0.9150 0.9140 0.9140
1535.407050 0.9120 0.9120 0.9110 0.9110 0.9090
1539.848679 0.9080 0.9080 0.9080 0.9070 0.9070
1544.290308 0.9070 0.9050 0.9050 0.9040 0.9040
1548.731937 0.9030 0.9030 0.9030 0.9030 0.9010
1553.173566 0.9010 0.9010 0.9000 0.9000 0.9000
1557.615195 0.9000 0.9000 0.9000 0.9000 0.9010
1562.056824 0.9010 0.9010 0.9010 0.9030 0.9030
1566.498453 0.9040 0.9040 0.9050 0.9050 0.9070
1570.940082 0.9070 0.9080 0.9080 0.9090 0.9090
1575.381712 0.9090 0.9110 0.9120 0.9120 0.9140
1579.823341 0.9150 0.9150 0.9160 0.9160 0.9180
1584.264970 0.9180 0.9190 0.9190 0.9210 0.9210
1588.706599 0.9220 0.9220 0.9220 0.9230 0.9230
1593.148228 0.9230 0.9230 0.9230 0.9230 0.9250
1597.589857 0.9250 0.9250 0.9250 0.9230 0.9220
1602.031486 0.9210 0.9210 0.9210 0.9190 0.9180
1606.473115 0.9180 0.9180 0.9160 0.9150 0.9140
1610.914744 0.9110 0.9090 0.9090 0.9070 0.9050
1615.356373 0.9010 0.8970 0.8910 0.8870 0.8820
1619.798003 0.8790 0.8720 0.8690 0.8690 0.8640
1624.239632 0.8440 0.8320 0.8240 0.8190 0.8130
1628.681261 0.7930 0.7701 0.7590 0.7241 0.7091
1633.122890 0.7060 0.7060 0.7000 0.6920 0.6750
1637.564519 0.6620 0.6530 0.6450 0.6420 0.6410
1642.006148 0.6410 0.6420 0.6420 0.6450 0.6550
1646.447777 0.6560 0.6590 0.6640 0.6660 0.6660
1650.889406 0.6570 0.6570 0.6680 0.6750 0.6740
1655.331035 0.6590 0.6490 0.6440 0.6340 0.6310
1659.772664 0.6300 0.6310 0.6490 0.6750 0.6840
1664.214294 0.7070 0.7140 0.7280 0.7400 0.7768
1668.655923 0.8030 0.8170 0.8390 0.8470 0.8540
1673.097552 0.8600 0.8690 0.8869 0.9010 0.9070
1677.539181 0.9090 0.9120 0.9190 0.9220 0.9260
1681.980810 0.9270 0.9300 0.9320 0.9330 0.9330
1686.422439 0.9340 0.9360 0.9360 0.9370 0.9370
1690.864068 0.9390 0.9400 0.9440 0.9450 0.9470
1695.305697 0.9470 0.9480 0.9480 0.9500 0.9510
1699.747326 0.9520 0.9520 0.9540 0.9550 0.9550
1704.188955 0.9570 0.9570 0.9570 0.9570 0.9570
1708.630585 0.9570 0.9580 0.9580 0.9580 0.9580
1713.072214 0.9580 0.9580 0.9580 0.9580 0.9580
1717.513843 0.9580 0.9580 0.9580 0.9580 0.9580
1721.955472 0.9580 0.9580 0.9580 0.9580 0.9580
1726.397101 0.9580 0.9580 0.9570 0.9570 0.9570
1730.838730 0.9570 0.9570 0.9570 0.9570 0.9570
1735.280359 0.9570 0.9580 0.9580 0.9580 0.9580
1739.721988 0.9580 0.9580 0.9580 0.9580 0.9580
1744.163617 0.9580 0.9570 0.9570 0.9570 0.9570
1748.605246 0.9570 0.9570 0.9550 0.9550 0.9550
1753.046876 0.9550 0.9550 0.9550 0.9550 0.9550
1757.488505 0.9550 0.9550 0.9550 0.9550 0.9540
1761.930134 0.9540 0.9540 0.9540 0.9540 0.9550
1766.371763 0.9550 0.9550 0.9550 0.9550 0.9550
1770.813392 0.9550 0.9570 0.9570 0.9570 0.9580
1775.255021 0.9580 0.9590 0.9590 0.9590 0.9610
1779.696650 0.9610 0.9620 0.9620 0.9630 0.9630
1784.138279 0.9650 0.9650 0.9650 0.9650 0.9650
1788.579908 0.9650 0.9660 0.9660 0.9660 0.9660
1793.021537 0.9660 0.9660 0.9660 0.9660 0.9660
1797.463167 0.9660 0.9680 0.9680 0.9680 0.9660
1801.904796 0.9660 0.9660 0.9650 0.9630 0.9630
1806.346425 0.9620 0.9610 0.9610 0.9590 0.9570
1810.788054 0.9550 0.9550 0.9540 0.9540 0.9520
1815.229683 0.9470 0.9400 0.9390 0.9360 0.9320
1819.671312 0.9260 0.9180 0.9140 0.9110 0.9090
1824.112941 0.9030 0.9000 0.8960 0.8910 0.8870
1828.554570 0.8820 0.8780 0.8720 0.8690 0.8670
1832.996199 0.8610 0.8540 0.8510 0.8490 0.8420
1837.437828 0.8370 0.8360 0.8330 0.8310 0.8250
1841.879458 0.8240 0.8220 0.8190 0.8170 0.8110
1846.321087 0.7920 0.7820 0.7770 0.7720 0.7650
1850.762716 0.7610 0.7600 0.7600 0.7600 0.7600
1855.204345 0.7600 0.7600 0.7610 0.7610 0.7630
1859.645974 0.7640 0.7650 0.7670 0.7680 0.7700
1864.087603 0.7700 0.7720 0.7740 0.7750 0.7770
1868.529232 0.7790 0.7850 0.7920 0.7970 0.8030
1872.970861 0.8040 0.8070 0.8140 0.8280 0.8320
1877.412490 0.8360 0.8430 0.8530 0.8550 0.8640
1881.854119 0.8730 0.8780 0.8800 0.8890 0.8970
1886.295749 0.9000 0.9040 0.9110 0.9150 0.9220
1890.737378 0.9230 0.9260 0.9270 0.9270 0.9320
1895.179007 0.9320 0.9330 0.9360 0.9360 0.9390
1899.620636 0.9400 0.9410 0.9430 0.9430 0.9440
1904.062265 0.9440 0.9440 0.9450 0.9470 0.9470
1908.503894 0.9480 0.9480 0.9480 0.9480 0.9480
1912.945523 0.9480 0.9480 0.9480 0.9480 0.9480
1917.387152 0.9480 0.9480 0.9480 0.9470 0.9450
1921.828781 0.9450 0.9450 0.9450 0.9450 0.9440
1926.270410 0.9430 0.9430 0.9430 0.9430 0.9430
1930.712040 0.9410 0.9410 0.9410 0.9400 0.9370
1935.153669 0.9360 0.9340 0.9340 0.9330 0.9330
1939.595298 0.9330 0.9320 0.9320 0.9320 0.9320
1944.036927 0.9320 0.9300 0.9270 0.9260 0.9220
1948.478556 0.9180 0.9150 0.9140 0.9140 0.9150
1952.920185 0.9150 0.9150 0.9140 0.9120 0.8860
1957.361814 0.8311 0.8310 0.8679 0.8999 0.9040
1961.803443 0.9070 0.9080 0.9080 0.9080 0.9080
1966.245072 0.9070 0.9080 0.9070 0.9070 0.9050
1970.686701 0.9030 0.9030 0.9010 0.9000 0.8980
1975.128331 0.8980 0.8980 0.8970 0.8970 0.8970
1979.569960 0.8960 0.8960 0.8960 0.8960 0.8940
1984.011589 0.8940 0.8940 0.8940 0.8960 0.8960
1988.453218 0.8970 0.8970 0.8970 0.8980 0.8980
1992.894847 0.8980 0.8980 0.8980 0.8980 0.9000
1997.336476 0.9000 0.9010 0.9030 0.9030 0.9030
2001.778105 0.9030 0.9030 0.9030 0.9035 0.9040
2006.219734 0.9040 0.9040 0.9055 0.9070 0.9075
2010.661363 0.9080 0.9085 0.9090 0.9100 0.9110
2015.102992 0.9115 0.9120 0.9120 0.9120 0.9130
2019.544622 0.9140 0.9145 0.9150 0.9150 0.9150
2023.986251 0.9145 0.9140 0.9125 0.9110 0.9071
2028.427880 0.9031 0.9030 0.9030 0.9069 0.9109
2032.869509 0.9110 0.9110 0.9110 0.9110 0.9076
2037.311138 0.9041 0.9006 0.8971 0.8951 0.8931
2041.752767 0.8911 0.8891 0.8861 0.8831 0.8830
2046.194396 0.8830 0.8811 0.8791 0.8757 0.8722
2050.636025 0.8715 0.8710 0.8710 0.8710 0.8715
2055.077654 0.8720 0.8720 0.8720 0.8720 0.8720
2059.519283 0.8720 0.8720 0.8720 0.8720 0.8720
2063.960913 0.8720 0.8720 0.8720 0.8720 0.8720
2068.402542 0.8725 0.8730 0.8772 0.8818 0.8853
2072.844171 0.8888 0.8909 0.8929 0.8963 0.8998
2077.285800 0.9019 0.9039 0.9077 0.9117 0.9134
2081.727429 0.9149 0.9155 0.9160 0.9174 0.9189
2086.169058 0.9190 0.9190 0.9199 0.9209 0.9215
2090.610687 0.9220 0.9225 0.9230 0.9230 0.9230
2095.052316 0.9239 0.9249 0.9250 0.9250 0.9255
2099.493945 0.9260 0.9265 0.9270 0.9270 0.9270
2103.935574 0.9279 0.9289 0.9290 0.9290 0.9295
2108.377204 0.9300 0.9300 0.9300 0.9300 0.9300
2112.818833 0.9300 0.9300 0.9295 0.9290 0.9290
2117.260462 0.9290 0.9290 0.9290 0.9290 0.9290
2121.702091 0.9294 0.9299 0.9300 0.9300 0.9300
2126.143720 0.9300 0.9309 0.9319 0.9320 0.9320
2130.585349 0.9320 0.9320 0.9324 0.9329 0.9330
2135.026978 0.9330 0.9330 0.9330 0.9330 0.9330
2139.468607 0.9334 0.9339 0.9349 0.9359 0.9365
2143.910236 0.9369 0.9370 0.9370 0.9379 0.9389
2148.351865 0.9390 0.9390 0.9381 0.9371 0.9370
2152.793495 0.9370 0.9370 0.9370 0.9370 0.9370
2157.235124 0.9370 0.9370 0.9366 0.9361 0.9360
2161.676753 0.9360 0.9360 0.9360 0.9360 0.9360
2166.118382 0.9360 0.9360 0.9364 0.9369 0.9366
2170.560011 0.9361 0.9351 0.9341 0.9340 0.9340
2175.001640 0.9340 0.9340 0.9340 0.9340 0.9340
2179.443269 0.9340 0.9349 0.9359 0.9360 0.9360
2183.884898 0.9360 0.9360 0.9360 0.9360 0.9347
2188.326527 0.9332 0.9330 0.9330 0.9330 0.9330
2192.768156 0.9330 0.9330 0.9330 0.9330 0.9330
2197.209786 0.9330 0.9334 0.9339 0.9336 0.9331
2201.651415 0.9326 0.9321 0.9320 0.9320 0.9320
2206.093044 0.9320 0.9320 0.9320 0.9320 0.9320
2210.534673 0.9312 0.9302 0.9287 0.9272 0.9266
2214.976302 0.9261 0.9260 0.9260 0.9260 0.9260
2219.417931 0.9256 0.9251 0.9250 0.9250 0.9250
2223.859560 0.9250 0.9250 0.9250 0.9242 0.9232
2228.301189 0.9230 0.9230 0.9230 0.9230 0.9230
2232.742818 0.9230 0.9230 0.9230 0.9230 0.9230
2237.184447 0.9230 0.9230 0.9230 0.9230 0.9230
2241.626077 0.9230 0.9226 0.9221 0.9220 0.9220
2246.067706 0.9220 0.9220 0.9220 0.9220 0.9216
2250.509335 0.9211 0.9210 0.9210 0.9210 0.9210
2254.950964 0.9210 0.9210 0.9214 0.9219 0.9220
2259.392593 0.9220 0.9220 0.9220 0.9220 0.9220
2263.834222 0.9224 0.9229 0.9230 0.9230 0.9238
2268.275851 0.9248 0.9250 0.9250 0.9250 0.9250
2272.717480 0.9250 0.9250 0.9250 0.9250 0.9254
2277.159109 0.9259 0.9260 0.9260 0.9260 0.9260
2281.600738 0.9260 0.9260 0.9260 0.9260 0.9260
2286.042368 0.9260 0.9256 0.9251 0.9250 0.9250
2290.483997 0.9250 0.9250 0.9250 0.9250 0.9242
2294.925626 0.9232 0.9230 0.9230 0.9230 0.9230
2299.367255 0.9230 0.9230 0.9230 0.9230 0.9230
2303.808884 0.9230 0.9230 0.9230 0.9230 0.9230
2308.250513 0.9230 0.9230 0.9230 0.9230 0.9230
2312.692142 0.9230 0.9230 0.9230 0.9230 0.9230
2317.133771 0.9230 0.9230 0.9238 0.9248 0.9250
2321.575400 0.9250 0.9250 0.9250 0.9250 0.9250
2326.017029 0.9254 0.9259 0.9260 0.9260 0.9260
2330.458659 0.9260 0.9260 0.9260 0.9260 0.9260
2334.900288 0.9260 0.9260 0.9264 0.9269 0.9270
2339.341917 0.9270 0.9270 0.9270 0.9270 0.9270
2343.783546 0.9270 0.9270 0.9263 0.9253 0.9250
2348.225175 0.9250 0.9250 0.9250 0.9250 0.9250
2352.666804 0.9250 0.9250 0.9243 0.9233 0.9230
2357.108433 0.9230 0.9230 0.9230 0.9230 0.9230
2361.550062 0.9237 0.9247 0.9250 0.9250 0.9250
2365.991691 0.9250 0.9254 0.9259 0.9260 0.9260
2370.433320 0.9264 0.9269 0.9266 0.9261 0.9260
2374.874950 0.9260 0.9260 0.9260 0.9249 0.9234
2379.316579 0.9226 0.9221 0.9198 0.9168 0.9153
2383.758208 0.9143 0.9140 0.9140 0.9133 0.9123
2388.199837 0.9116 0.9111 0.9096 0.9076 0.9063
2392.641466 0.9053 0.9050 0.9050 0.9050 0.9050
2397.083095 0.9050 0.9050 0.9046 0.9041 0.9036
2401.524724 0.9031 0.9030 0.9030 0.9030 0.9030
2405.966353 0.9030 0.9030 0.9030 0.9030 0.9023
2410.407982 0.9013 0.9010 0.9010 0.9010 0.9010
2414.849611 0.9010 0.9010 0.9017 0.9027 0.9033
2419.291241 0.9038 0.9040 0.9040 0.9043 0.9048
2423.732870 0.9050 0.9050 0.9057 0.9067 0.9073
2428.174499 0.9078 0.9080 0.9080 0.9083 0.9088
2432.616128 0.9090 0.9090 0.9090 0.9090 0.9090
2437.057757 0.9090 0.9097 0.9107 0.9113 0.9118
2441.499386 0.9120 0.9120 0.9120 0.9120 0.9120
2445.941015 0.9120 0.9127 0.9137 0.9140 0.9140
2450.382644 0.9143 0.9148 0.9150 0.9150 0.9150
2454.824273 0.9150 0.9150 0.9150 0.9150 0.9150
2459.265902 0.9150 0.9150 0.9150 0.9150 0.9153
2463.707532 0.9158 0.9160 0.9160 0.9160 0.9160
2468.149161 0.9160 0.9160 0.9160 0.9160 0.9160
2472.590790 0.9160 0.9160 0.9160 0.9160 0.9160
2477.032419 0.9160 0.9160 0.9160 0.9160 0.9160
2481.474048 0.9160 0.9160 0.9160 0.9160 0.9160
2485.915677 0.9157 0.9152 0.9150 0.9150 0.9150
2490.357306 0.9150 0.9147 0.9142 0.9140 0.9140
2494.798935 0.9140 0.9140 0.9140 0.9140 0.9134
2499.240564 0.9124 0.9120 0.9120 0.9117 0.9112
2503.682193 0.9110 0.9110 0.9110 0.9110 0.9110
2508.123823 0.9110 0.9110 0.9110 0.9104 0.9094
2512.565452 0.9090 0.9090 0.9087 0.9082 0.9077
2517.007081 0.9072 0.9070 0.9070 0.9070 0.9070
2521.448710 0.9064 0.9054 0.9050 0.9050 0.9050
2525.890339 0.9050 0.9056 0.9066 0.9070 0.9070
2530.331968 0.9073 0.9078 0.9080 0.9080 0.9080
2534.773597 0.9080 0.9083 0.9088 0.9090 0.9090
2539.215226 0.9096 0.9106 0.9110 0.9110 0.9110
2543.656855 0.9110 0.9113 0.9118 0.9120 0.9120
2548.098484 0.9120 0.9120 0.9120 0.9120 0.9120
2552.540114 0.9120 0.9126 0.9136 0.9140 0.9140
2556.981743 0.9140 0.9140 0.9140 0.9140 0.9143
2561.423372 0.9148 0.9150 0.9150 0.9150 0.9150
2565.865001 0.9150 0.9150 0.9150 0.9150 0.9150
2570.306630 0.9150 0.9150 0.9150 0.9150 0.9150
2574.748259 0.9150 0.9150 0.9150 0.9150 0.9150
2579.189888 0.9150 0.9150 0.9150 0.9150 0.9150
2583.631517 0.9150 0.9150 0.9150 0.9150 0.9150
2588.073146 0.9150 0.9147 0.9142 0.9140 0.9140
2592.514775 0.9140 0.9140 0.9140 0.9140 0.9140
2596.956405 0.9140 0.9140 0.9140 0.9140 0.9140
2601.398034 0.9140 0.9140 0.9134 0.9124 0.9120
2605.839663 0.9120 0.9120 0.9120 0.9117 0.9112
2610.281292 0.9110 0.9110 0.9110 0.9110 0.9104
2614.722921 0.9094 0.9090 0.9090 0.9090 0.9090
2619.164550 0.9085 0.9075 0.9070 0.9070 0.9064
2623.606179 0.9054 0.9047 0.9042 0.9037 0.9032
2628.047808 0.9025 0.9015 0.9007 0.9002 0.8995
2632.489437 0.8985 0.8980 0.8980 0.8980 0.8980
2636.931066 0.8977 0.8972 0.8967 0.8962 0.8960
2641.372696 0.8960 0.8960 0.8960 0.8955 0.8945
2645.814325 0.8940 0.8940 0.8937 0.8932 0.8930
2650.255954 0.8930 0.8925 0.8915 0.8907 0.8902
2654.697583 0.8897 0.8892 0.8890 0.8890 0.8885
2659.139212 0.8875 0.8867 0.8862 0.8857 0.8852
2663.580841 0.8850 0.8850 0.8845 0.8835 0.8830
2668.022470 0.8830 0.8822 0.8807 0.8797 0.8792
2672.464099 0.8787 0.8782 0.8772 0.8757 0.8745
2676.905728 0.8735 0.8727 0.8722 0.8717 0.8712
2681.347357 0.8705 0.8695 0.8690 0.8690 0.8690
2685.788987 0.8690 0.8690 0.8690 0.8690 0.8690
2690.230616 0.8688 0.8683 0.8665 0.8635 0.8617
2694.672245 0.8612 0.8602 0.8587 0.8573 0.8558
2699.113874 0.8545 0.8535 0.8523 0.8508 0.8498
2703.555503 0.8493 0.8485 0.8475 0.8468 0.8463
2707.997132 0.8450 0.8430 0.8408 0.8383 0.8368
2712.438761 0.8363 0.8353 0.8338 0.8330 0.8330
2716.880390 0.8325 0.8315 0.8298 0.8273 0.8258
2721.322019 0.8253 0.8248 0.8243 0.8235 0.8225
2725.763648 0.8220 0.8220 0.8211 0.8190 0.8170
2730.205278 0.8150 0.8138 0.8133 0.8125 0.8115
2734.646907 0.8110 0.8110 0.8101 0.8081 0.8061
2739.088536 0.8041 0.8025 0.8015 0.8010 0.8010
2743.530165 0.8008 0.8003 0.8000 0.8000 0.7993
2747.971794 0.7978 0.7968 0.7963 0.7951 0.7931
2752.413423 0.7913 0.7898 0.7876 0.7846 0.7825
2756.855052 0.7815 0.7801 0.7781 0.7754 0.7719
2761.296681 0.7693 0.7678 0.7666 0.7655 0.7650
2765.738310 0.7650 0.7648 0.7643 0.7638 0.7633
2770.179939 0.7630 0.7630 0.7626 0.7616 0.7608
2774.621569 0.7603 0.7598 0.7593 0.7579 0.7554
2779.063198 0.7536 0.7526 0.7509 0.7484 0.7454
2783.504827 0.7420 0.7398 0.7393 0.7383 0.7368
2787.946456 0.7358 0.7353 0.7344 0.7329 0.7320
2792.388085 0.7320 0.7320 0.7320 0.7318 0.7313
2796.829714 0.7304 0.7289 0.7267 0.7237 0.7209
2801.271343 0.7184 0.7157 0.7127 0.7095 0.7060
2805.712972 0.7029 0.7005 0.6975 0.6940 0.6889
2810.154601 0.6814 0.6735 0.6650 0.6580 0.6530
2814.596230 0.6488 0.6458 0.6393 0.6277 0.6177
2819.037860 0.6097 0.6013 0.5923 0.5821 0.5701
2823.479489 0.5601 0.5532 0.5474 0.5434 0.5344
2827.921118 0.5179 0.5044 0.4954 0.4825 0.4635
2832.362747 0.4498 0.4444 0.4361 0.4235 0.4107
2836.804376 0.3978 0.3814 0.3599 0.3410 0.3261
2841.246005 0.3129 0.3024 0.2923 0.2828 0.2729
2845.687634 0.2624 0.2504 0.2359 0.2154 0.1849
2850.129263 0.1592 0.1412 0.1279 0.1224 0.1178
2854.570892 0.1148 0.1095 0.1005 0.0923 0.0853
2859.012521 0.0795 0.0755 0.0717 0.0682 0.0658
2863.454151 0.0653 0.0646 0.0636 0.0617 0.0582
2867.895780 0.0547 0.0512 0.0488 0.0483 0.0469
2872.337409 0.0439 0.0420 0.0420 0.0416 0.0406
2876.779038 0.0394 0.0379 0.0364 0.0350 0.0338
2881.220667 0.0333 0.0330 0.0330 0.0332 0.0337
2885.662296 0.0344 0.0354 0.0362 0.0367 0.0376
2890.103925 0.0390 0.0409 0.0434 0.0455 0.0470
2894.545554 0.0482 0.0487 0.0499 0.0524 0.0542
2898.987183 0.0547 0.0562 0.0597 0.0627 0.0647
2903.428812 0.0662 0.0667 0.0675 0.0690 0.0704
2907.870442 0.0714 0.0727 0.0747 0.0762 0.0767
2912.312071 0.0772 0.0777 0.0783 0.0793 0.0805
2916.753700 0.0820 0.0837 0.0857 0.0875 0.0890
2921.195329 0.0903 0.0913 0.0923 0.0933 0.0942
2925.636958 0.0947 0.0950 0.0950 0.0950 0.0950
2930.078587 0.0950 0.0950 0.0950 0.0950 0.0952
2934.520216 0.0957 0.0963 0.0973 0.0982 0.0987
2938.961845 0.0995 0.1010 0.1025 0.1040 0.1057
2943.403474 0.1077 0.1090 0.1090 0.1098 0.1123
2947.845104 0.1143 0.1153 0.1179 0.1239 0.1302
2952.286733 0.1372 0.1442 0.1512 0.1575 0.1625
2956.728362 0.1666 0.1686 0.1718 0.1779 0.1841
2961.169991 0.1905 0.1972 0.2042 0.2092 0.2097
2965.611620 0.2117 0.2172 0.2222 0.2262 0.2305
2970.053249 0.2355 0.2399 0.2429 0.2457 0.2482
2974.494878 0.2500 0.2500 0.2496 0.2481 0.2467
2978.936507 0.2457 0.2445 0.2431 0.2410 0.2375
2983.378136 0.2346 0.2331 0.2316 0.2301 0.2287
2987.819765 0.2277 0.2263 0.2238 0.2219 0.2214
2992.261395 0.2209 0.2204 0.2201 0.2206 0.2242
2996.703024 0.2352 0.2460 0.2565 0.2641 0.2646
3001.144653 0.2622 0.2522 0.2426 0.2342 0.2265
3005.586282 0.2210 0.2169 0.2164 0.2161 0.2166
3010.027911 0.2181 0.2221 0.2259 0.2295 0.2328
3014.469540 0.2358 0.2402 0.2482 0.2586 0.2756
3018.911169 0.2910 0.3019 0.3105 0.3125 0.3149
3023.352798 0.3184 0.3235 0.3329 0.3432 0.3557
3027.794427 0.3673 0.3763 0.3835 0.3855 0.3873
3032.236056 0.3883 0.3897 0.3922 0.3943 0.3953
3036.677686 0.3988 0.4098 0.4217 0.4361 0.4511
3041.119315 0.4676 0.4831 0.4956 0.5055 0.5075
3045.560944 0.5112 0.5201 0.5287 0.5357 0.5424
3050.002573 0.5479 0.5529 0.5564 0.5595 0.5615
3054.444202 0.5630 0.5630 0.5624 0.5599 0.5572
3058.885831 0.5537 0.5487 0.5387 0.5289 0.5199
3063.327460 0.5122 0.5087 0.5050 0.5004 0.4950
3067.769089 0.4865 0.4775 0.4670 0.4567 0.4467
3072.210718 0.4361 0.4236 0.4132 0.4097 0.4055
3076.652347 0.3991 0.3880 0.3611 0.3334 0.3029
3081.093977 0.2775 0.2705 0.2633 0.2552 0.2473
3085.535606 0.2398 0.2324 0.2254 0.2190 0.2145
3089.977235 0.2106 0.2086 0.2065 0.2040 0.2018
3094.418864 0.2008 0.2002 0.2012 0.2027 0.2062
3098.860493 0.2097 0.2132 0.2166 0.2196 0.2228
3103.302122 0.2262 0.2300 0.2344 0.2392 0.2446
3107.743751 0.2510 0.2604 0.2682 0.2692 0.2759
3112.185380 0.3053 0.3315 0.3445 0.3574 0.3699
3116.627009 0.3857 0.4156 0.4462 0.4795 0.5120
3121.068638 0.5414 0.5706 0.5985 0.6234 0.6353
3125.510268 0.6490 0.6694 0.6904 0.7133 0.7362
3129.951897 0.7587 0.7797 0.7947 0.8083 0.8152
3134.393526 0.8222 0.8292 0.8364 0.8445 0.8529
3138.835155 0.8629 0.8721 0.8781 0.8837 0.8877
3143.276784 0.8913 0.8928 0.8945 0.8975 0.9006
3147.718413 0.9041 0.9074 0.9099 0.9123 0.9137
3152.160042 0.9155 0.9185 0.9211 0.9216 0.9221
3156.601671 0.9226 0.9232 0.9242 0.9251 0.9256
3161.043300 0.9263 0.9277 0.9290 0.9290 0.9290
3165.484929 0.9290 0.9290 0.9290 0.9291 0.9296
3169.926559 0.9300 0.9300 0.9300 0.9300 0.9300
3174.368188 0.9300 0.9302 0.9312 0.9320 0.9320
3178.809817 0.9320 0.9320 0.9320 0.9320 0.9321
3183.251446 0.9326 0.9330 0.9330 0.9330 0.9330
3187.693075 0.9330 0.9330 0.9331 0.9336 0.9340
3192.134704 0.9340 0.9340 0.9340 0.9340 0.9340
3196.576333 0.9340 0.9340 0.9339 0.9334 0.9331
3201.017962 0.9336 0.9340 0.9340 0.9340 0.9340
3205.459591 0.9340 0.9340 0.9340 0.9340 0.9340
3209.901220 0.9340 0.9340 0.9340 0.9340 0.9340
3214.342850 0.9340 0.9340 0.9340 0.9340 0.9340
3218.784479 0.9340 0.9340 0.9340 0.9340 0.9340
3223.226108 0.9340 0.9340 0.9340 0.9340 0.9340
3227.667737 0.9340 0.9340 0.9340 0.9340 0.9340
3232.109366 0.9340 0.9340 0.9340 0.9340 0.9340
3236.550995 0.9340 0.9340 0.9340 0.9341 0.9351
3240.992624 0.9360 0.9360 0.9360 0.9360 0.9361
3245.434253 0.9366 0.9370 0.9370 0.9370 0.9370
3249.875882 0.9370 0.9370 0.9370 0.9370 0.9370
3254.317511 0.9370 0.9370 0.9370 0.9370 0.9365
3258.759141 0.9360 0.9360 0.9360 0.9360 0.9359
3263.200770 0.9349 0.9340 0.9340 0.9340 0.9340
3267.642399 0.9340 0.9335 0.9330 0.9335 0.9340
3272.084028 0.9340 0.9340 0.9340 0.9340 0.9340
3276.525657 0.9340 0.9340 0.9340 0.9340 0.9340
3280.967286 0.9340 0.9340 0.9340 0.9341 0.9351
3285.408915 0.9360 0.9360 0.9360 0.9360 0.9360
3289.850544 0.9360 0.9360 0.9360 0.9360 0.9360
3294.292173 0.9360 0.9360 0.9360 0.9360 0.9360
3298.733802 0.9360 0.9360 0.9360 0.9360 0.9365
3303.175432 0.9370 0.9370 0.9371 0.9381 0.9390
3307.617061 0.9390 0.9390 0.9390 0.9390 0.9395
3312.058690 0.9400 0.9400 0.9400 0.9400 0.9400
3316.500319 0.9400 0.9400 0.9400 0.9400 0.9400
3320.941948 0.9400 0.9400 0.9400 0.9400 0.9400
3325.383577 0.9400 0.9400 0.9400 0.9400 0.9400
3329.825206 0.9400 0.9400 0.9400 0.9400 0.9400
3334.266835 0.9395 0.9390 0.9390 0.9390 0.9390
3338.708464 0.9390 0.9390 0.9390 0.9390 0.9390
3343.150093 0.9390 0.9390 0.9380 0.9370 0.9365
3347.591723 0.9360 0.9360 0.9360 0.9350 0.9340
3352.033352 0.9335 0.9330 0.9325 0.9320 0.9310
3356.474981 0.9300 0.9295 0.9290 0.9280 0.9270
3360.916610 0.9265 0.9260 0.9255 0.9250 0.9240
3365.358239 0.9230 0.9225 0.9220 0.9215 0.9210
3369.799868 0.9210 0.9210 0.9200 0.9190 0.9190
3374.241497 0.9190 0.9185 0.9180 0.9180 0.9180
3378.683126 0.9170 0.9160 0.9160 0.9160 0.9155
3383.124755 0.9150 0.9150 0.9150 0.9150 0.9150
3387.566384 0.9145 0.9140 0.9140 0.9140 0.9130
3392.008014 0.9120 0.9120 0.9120 0.9120 0.9120
3396.449643 0.9120 0.9120 0.9120 0.9120 0.9120
3400.891272 0.9120 0.9130 0.9140 0.9140 0.9140
3405.332901 0.9140 0.9140 0.9140 0.9140 0.9140
3409.774530 0.9140 0.9140 0.9140 0.9140 0.9140
3414.216159 0.9140 0.9140 0.9145 0.9150 0.9150
3418.657788 0.9150 0.9150 0.9150 0.9150 0.9150
3423.099417 0.9150 0.9150 0.9165 0.9180 0.9180
3427.541046 0.9180 0.9185 0.9190 0.9185 0.9180
3431.982675 0.9185 0.9190 0.9190 0.9190 0.9190
3436.424305 0.9190 0.9190 0.9190 0.9190 0.9190
3440.865934 0.9190 0.9190 0.9190 0.9190 0.9190
3445.307563 0.9190 0.9200 0.9210 0.9210 0.9210
3449.749192 0.9210 0.9210 0.9210 0.9210 0.9210
3454.190821 0.9210 0.9210 0.9210 0.9210 0.9210
3458.632450 0.9210 0.9210 0.9200 0.9190 0.9190
3463.074079 0.9190 0.9190 0.9190 0.9190 0.9190
3467.515708 0.9190 0.9190 0.9185 0.9180 0.9180
3471.957337 0.9180 0.9180 0.9180 0.9180 0.9180
3476.398966 0.9171 0.9161 0.9160 0.9160 0.9169
3480.840596 0.9179 0.9180 0.9180 0.9180 0.9180
3485.282225 0.9180 0.9180 0.9185 0.9190 0.9190
3489.723854 0.9190 0.9190 0.9190 0.9190 0.9190
3494.165483 0.9190 0.9190 0.9199 0.9209 0.9215
3498.607112 0.9220 0.9225 0.9230 0.9230 0.9230
3503.048741 0.9239 0.9249 0.9250 0.9250 0.9250
3507.490370 0.9250 0.9255 0.9260 0.9260 0.9260
3511.931999 0.9265 0.9270 0.9270 0.9270 0.9270
3516.373628 0.9270 0.9265 0.9260 0.9260 0.9260
3520.815257 0.9255 0.9250 0.9250 0.9250 0.9241
3525.256887 0.9231 0.9226 0.9221 0.9220 0.9220
3529.698516 0.9220 0.9220 0.9215 0.9210 0.9210
3534.140145 0.9210 0.9210 0.9210 0.9201 0.9191
3538.581774 0.9190 0.9190 0.9186 0.9181 0.9180
3543.023403 0.9180 0.9171 0.9161 0.9160 0.9160
3547.465032 0.9160 0.9160 0.9160 0.9160 0.9160
3551.906661 0.9160 0.9156 0.9151 0.9150 0.9150
3556.348290 0.9150 0.9150 0.9150 0.9150 0.9150
3560.789919 0.9150 0.9146 0.9141 0.9140 0.9140
3565.231548 0.9140 0.9140 0.9140 0.9140 0.9140
3569.673178 0.9140 0.9140 0.9140 0.9140 0.9140
3574.114807 0.9140 0.9140 0.9131 0.9121 0.9120
3578.556436 0.9120 0.9116 0.9111 0.9110 0.9110
3582.998065 0.9101 0.9091 0.9090 0.9090 0.9086
3587.439694 0.9081 0.9076 0.9071 0.9061 0.9051
3591.881323 0.9046 0.9041 0.9027 0.9012 0.8993
3596.322952 0.8973 0.8970 0.8970 0.8910 0.8840
3600.764581 0.8766 0.8691 0.8676 0.8671 0.8619
3605.206210 0.8559 0.8482 0.8402 0.8288 0.8169
3609.647839 0.8040 0.7911 0.7764 0.7614 0.7536
3614.089469 0.7471 0.7389 0.7304 0.7122 0.6921
3618.531098 0.6691 0.6456 0.6277 0.6107 0.5975
3622.972727 0.5850 0.5734 0.5619 0.5504 0.5389
3627.414356 0.5233 0.5068 0.4821 0.4556 0.4329
3631.855985 0.4109 0.4013 0.3943 0.3823 0.3692
3636.297614 0.3528 0.3359 0.3193 0.3028 0.2971
3640.739243 0.2936 0.2897 0.2857 0.2809 0.2759
3645.180872 0.2705 0.2650 0.2599 0.2549 0.2491
3649.622501 0.2431 0.2376 0.2321 0.2257 0.2192
3654.064130 0.2135 0.2080 0.2033 0.1988 0.1931
3658.505760 0.1871 0.1823 0.1779 0.1746 0.1716
3662.947389 0.1690 0.1665 0.1680 0.1705 0.1726
3667.389018 0.1746 0.1822 0.1911 0.1998 0.2084
3671.830647 0.2169 0.2254 0.2274 0.2279 0.2392
3676.272276 0.2532 0.2680 0.2830 0.2944 0.3048
3680.713905 0.3141 0.3231 0.3333 0.3438 0.3586
3685.155534 0.3746 0.3964 0.4199 0.4565 0.4968
3689.597163 0.5249 0.5499 0.5677 0.5837 0.5957
3694.038792 0.6067 0.6200 0.6340 0.6531 0.6735
3698.480421 0.7002 0.7287 0.7478 0.7643 0.7765
3702.922051 0.7875 0.7969 0.8059 0.8177 0.8303
3707.363680 0.8479 0.8668 0.8800 0.8914 0.8994
3711.805309 0.9064 0.9084 0.9089 0.9098 0.9108
3716.246938 0.9114 0.9119 0.9131 0.9146 0.9161
3720.688567 0.9176 0.9184 0.9189 0.9198 0.9208
3725.130196 0.9210 0.9210 0.9218 0.9228 0.9241
3729.571825 0.9256 0.9264 0.9269 0.9278 0.9288
3734.013454 0.9290 0.9290 0.9294 0.9299 0.9300
3738.455083 0.9300 0.9307 0.9317 0.9320 0.9320
3742.896712 0.9324 0.9329 0.9330 0.9330 0.9330
3747.338342 0.9330 0.9330 0.9330 0.9334 0.9339
3751.779971 0.9340 0.9340 0.9340 0.9340 0.9347
3756.221600 0.9357 0.9360 0.9360 0.9364 0.9369
3760.663229 0.9370 0.9370 0.9377 0.9387 0.9390
3765.104858 0.9390 0.9394 0.9399 0.9411 0.9426
3769.546487 0.9434 0.9439 0.9465 0.9500 0.9514
3773.988116 0.9519 0.9527 0.9537 0.9544 0.9549
3778.429745 0.9550 0.9550 0.9550 0.9550 0.9546
3782.871374 0.9541 0.9540 0.9540 0.9540 0.9540
3787.313003 0.9533 0.9523 0.9516 0.9511 0.9510
3791.754633 0.9510 0.9506 0.9501
##END=
