##TITLE=PROPANE, 1-BROMO-3-CHLORO-
##JCAMP-DX=4.24
##DATA TYPE=INFRARED SPECTRUM
##CLASS=COBLENTZ III
##ORIGIN=DOW CHEMICAL COMPANY
##OWNER=COBLENTZ SOCIETY
Collection (C) 2018 copyright by the U.S. Secretary of Commerce
on behalf of the United States of America. All rights reserved.
##DATE=1961/12/15
##NAMES=1-bromo-3-chloropropane
##CAS REGISTRY NO=109-70-6
##MOLFORM=C3 H6 Br Cl
##SOURCE REFERENCE=COBLENTZ NO. 10023
##$NIST SOURCE=COBLENTZ
##$NIST IMAGE=cob10023
##SPECTROMETER/DATA SYSTEM=DOW KBr FOREPRISM-GRATING
##INSTRUMENT PARAMETERS=BLAZED AT 3.5, 12.0, 20.0 MICRON, CHANGED AT 5.0, 7.5, 14.9 MICRON
##STATE=SOLUTION (10% IN CCl4 FOR 3800-1333, AND 10% IN CS2 FOR 1333-450 CM^-^1)
##PATH LENGTH=0.011, 0.011 CM
$$SPECTRAL CONTAMINATION DUE TO CCl4 AROUND 1550 CM^-^1
##SAMPLING PROCEDURE=TRANSMISSION
##RESOLUTION=4
##DATA PROCESSING=DIGITIZED BY NIST FROM HARD COPY (FROM TWO SEGMENTS)
##XUNITS=1/CM
##YUNITS=TRANSMITTANCE
##XFACTOR=1.000000
##YFACTOR=1
##DELTAX=0.869094
##FIRSTX=450.407
##LASTX=3794.68
##FIRSTY=1.062
##MAXX=3794.68
##MINX=450.407
##MAXY=1.088
##MINY=0.22203
##NPOINTS=3849
##XYDATA=(X++(Y..Y))
450.407000 1.0620 1.0640 1.0640 1.0620 1.0620
454.752470 1.0620 1.0620 1.0620 1.0620 1.0620
459.097941 1.0640 1.0640 1.0640 1.0620 1.0620
463.443411 1.0640 1.0640 1.0650 1.0650 1.0650
467.788882 1.0650 1.0650 1.0650 1.0650 1.0650
472.134352 1.0650 1.0680 1.0690 1.0690 1.0700
476.479822 1.0720 1.0720 1.0720 1.0730 1.0730
480.825293 1.0730 1.0760 1.0760 1.0730 1.0730
485.170763 1.0730 1.0740 1.0760 1.0760 1.0760
489.516234 1.0770 1.0770 1.0770 1.0770 1.0790
493.861704 1.0790 1.0790 1.0800 1.0800 1.0800
498.207174 1.0810 1.0800 1.0800 1.0800 1.0810
502.552645 1.0810 1.0830 1.0830 1.0830 1.0830
506.898115 1.0830 1.0830 1.0830 1.0830 1.0830
511.243585 1.0830 1.0830 1.0830 1.0830 1.0830
515.589056 1.0830 1.0830 1.0830 1.0830 1.0830
519.934526 1.0830 1.0830 1.0830 1.0850 1.0850
524.279997 1.0850 1.0850 1.0850 1.0850 1.0850
528.625467 1.0850 1.0870 1.0870 1.0870 1.0880
532.970937 1.0870 1.0870 1.0870 1.0870 1.0870
537.316408 1.0870 1.0870 1.0870 1.0870 1.0870
541.661878 1.0870 1.0850 1.0840 1.0840 1.0840
546.007349 1.0830 1.0810 1.0800 1.0800 1.0800
550.352819 1.0790 1.0760 1.0720 1.0660 1.0650
554.698289 1.0620 1.0580 1.0540 1.0500 1.0490
559.043760 1.0440 1.0380 1.0271 1.0171 1.0041
563.389230 0.9900 0.9760 0.9550 0.9270 0.8771
567.734701 0.8371 0.7951 0.7522 0.6903 0.6004
572.080171 0.5950 0.6000 0.6290 0.6639 0.7339
576.425641 0.7759 0.8318 0.9007 0.9448 0.9739
580.771112 0.9910 1.0080 1.0270 1.0420 1.0460
585.116582 1.0470 1.0530 1.0570 1.0610 1.0640
589.462053 1.0730 1.0740 1.0730 1.0720 1.0680
593.807523 1.0660 1.0660 1.0680 1.0700 1.0700
598.152993 1.0720 1.0720 1.0720 1.0720 1.0720
602.498464 1.0700 1.0700 1.0690 1.0680 1.0680
606.843934 1.0660 1.0660 1.0660 1.0660 1.0660
611.189405 1.0660 1.0640 1.0620 1.0620 1.0640
615.534875 1.0640 1.0620 1.0610 1.0590 1.0580
619.880345 1.0570 1.0550 1.0540 1.0510 1.0490
624.225816 1.0470 1.0470 1.0460 1.0380 1.0340
628.571286 1.0240 1.0200 1.0190 1.0100 1.0000
632.916756 0.9870 0.9760 0.9710 0.9710 0.9710
637.262227 0.9710 0.9710 0.9710 0.9710 0.9680
641.607697 0.9650 0.9600 0.9550 0.9490 0.9420
645.953168 0.9270 0.9220 0.9101 0.8951 0.8851
650.298638 0.8670 0.8510 0.8310 0.8100 0.8030
654.644108 0.7920 0.7761 0.7641 0.7540 0.7341
658.989579 0.7220 0.7050 0.6451 0.6400 0.6300
663.335049 0.5881 0.5472 0.5360 0.5350 0.5350
667.680520 0.5360 0.6629 0.7119 0.7130 0.7310
672.025990 0.7579 0.8237 0.8559 0.9008 0.9259
676.371460 0.9450 0.9570 0.9700 0.9760 0.9900
680.716931 0.9940 1.0000 1.0020 1.0040 1.0040
685.062401 1.0060 1.0160 1.0230 1.0230 1.0240
689.407872 1.0240 1.0250 1.0250 1.0250 1.0270
693.753342 1.0280 1.0270 1.0270 1.0270 1.0280
698.098812 1.0280 1.0290 1.0290 1.0290 1.0290
702.444283 1.0290 1.0290 1.0290 1.0280 1.0270
706.789753 1.0270 1.0270 1.0240 1.0230 1.0210
711.135224 1.0190 1.0140 1.0100 1.0040 1.0020
715.480694 1.0010 1.0000 0.9930 0.9870 0.9830
719.826164 0.9780 0.9710 0.9570 0.9290 0.9190
724.171635 0.9120 0.8990 0.8950 0.8930 0.8930
728.517105 0.9030 0.9160 0.9340 0.9420 0.9600
732.862575 0.9829 0.9870 0.9930 0.9980 1.0000
737.208046 1.0020 1.0040 1.0050 1.0060 1.0080
741.553516 1.0100 1.0130 1.0130 1.0130 1.0120
745.898987 1.0120 1.0120 1.0100 1.0090 1.0080
750.244457 1.0080 1.0050 1.0010 0.9980 0.9970
754.589927 0.9910 0.9890 0.9820 0.9780 0.9680
758.935398 0.9590 0.9520 0.9410 0.9261 0.9081
763.280868 0.8880 0.8660 0.8410 0.8210 0.7951
767.626339 0.7830 0.7651 0.7580 0.7530 0.7470
771.971809 0.7380 0.7260 0.7110 0.6960 0.6780
776.317279 0.6740 0.6600 0.6451 0.6301 0.6220
780.662750 0.6000 0.5840 0.5461 0.5420 0.5420
785.008220 0.5470 0.5639 0.5849 0.6059 0.6319
789.353691 0.6710 0.7090 0.7459 0.7789 0.8129
793.699161 0.8329 0.8699 0.8889 0.9029 0.9149
798.044631 0.9310 0.9380 0.9480 0.9560 0.9650
802.390102 0.9740 0.9800 0.9870 0.9910 0.9940
806.735572 0.9980 1.0000 1.0010 1.0020 1.0040
811.081043 1.0050 1.0060 1.0100 1.0140 1.0160
815.426513 1.0170 1.0190 1.0200 1.0210 1.0210
819.771983 1.0210 1.0210 1.0210 1.0200 1.0190
824.117454 1.0160 1.0140 1.0120 1.0100 1.0090
828.462924 1.0060 1.0060 1.0040 1.0010 1.0000
832.808394 0.9930 0.9870 0.9800 0.9780 0.9650
837.153865 0.9570 0.9450 0.9330 0.9121 0.8921
841.499335 0.8660 0.8460 0.8280 0.8280 0.8330
845.844806 0.8330 0.8330 0.8320 0.8290 0.8210
850.190276 0.8090 0.7920 0.7690 0.7460 0.7270
854.535746 0.7090 0.6930 0.6830 0.6740 0.6561
858.881217 0.6280 0.6080 0.6080 0.6140 0.6380
863.226687 0.6560 0.7088 0.7389 0.7569 0.7670
867.572158 0.7870 0.8020 0.8130 0.8210 0.8390
871.917628 0.8520 0.8670 0.8700 0.8740 0.8859
876.263098 0.8920 0.9000 0.9070 0.9150 0.9230
880.608569 0.9310 0.9350 0.9420 0.9490 0.9550
884.954039 0.9570 0.9600 0.9640 0.9760 0.9780
889.299510 0.9820 0.9860 0.9900 1.0000 1.0010
893.644980 1.0010 1.0020 1.0080 1.0100 1.0120
897.990450 1.0120 1.0160 1.0190 1.0190 1.0210
902.335921 1.0240 1.0240 1.0240 1.0230 1.0230
906.681391 1.0230 1.0230 1.0230 1.0230 1.0230
911.026862 1.0230 1.0230 1.0210 1.0210 1.0210
915.372332 1.0210 1.0210 1.0210 1.0210 1.0210
919.717802 1.0210 1.0210 1.0210 1.0190 1.0190
924.063273 1.0170 1.0140 1.0130 1.0120 1.0100
928.408743 1.0100 1.0090 1.0080 1.0050 1.0020
932.754214 1.0000 0.9980 0.9940 0.9910 0.9890
937.099684 0.9830 0.9780 0.9760 0.9670 0.9610
941.445154 0.9560 0.9400 0.9300 0.9151 0.9110
945.790625 0.8880 0.8670 0.8430 0.8250 0.8030
950.136095 0.7800 0.7491 0.7420 0.7420 0.7539
954.481565 0.7730 0.7870 0.8050 0.8250 0.8500
958.827036 0.8700 0.8820 0.9009 0.9219 0.9339
963.172506 0.9490 0.9570 0.9610 0.9680 0.9790
967.517977 0.9890 0.9910 0.9980 1.0000 1.0000
971.863447 1.0020 1.0050 1.0060 1.0060 1.0080
976.208917 1.0090 1.0100 1.0120 1.0120 1.0100
980.554388 1.0100 1.0120 1.0130 1.0160 1.0190
984.899858 1.0210 1.0230 1.0250 1.0280 1.0290
989.245329 1.0320 1.0320 1.0340 1.0340 1.0350
993.590799 1.0360 1.0360 1.0380 1.0380 1.0360
997.936269 1.0360 1.0360 1.0360 1.0360 1.0390
1002.281740 1.0360 1.0340 1.0320 1.0340 1.0350
1006.627210 1.0340 1.0290 1.0270 1.0270 1.0270
1010.972681 1.0250 1.0250 1.0250 1.0230 1.0190
1015.318151 1.0160 1.0140 1.0140 1.0140 1.0170
1019.663621 1.0230 1.0240 1.0270 1.0280 1.0280
1024.009092 1.0280 1.0280 1.0270 1.0270 1.0250
1028.354562 1.0240 1.0230 1.0230 1.0210 1.0210
1032.700033 1.0240 1.0250 1.0270 1.0280 1.0310
1037.045503 1.0320 1.0320 1.0320 1.0320 1.0320
1041.390973 1.0320 1.0340 1.0320 1.0320 1.0310
1045.736444 1.0290 1.0280 1.0270 1.0250 1.0250
1050.081914 1.0240 1.0240 1.0200 1.0160 1.0130
1054.427384 1.0090 1.0020 1.0000 0.9910 0.9860
1058.772855 0.9800 0.9780 0.9760 0.9780 0.9790
1063.118325 0.9850 0.9890 0.9910 0.9930 0.9940
1067.463796 0.9940 0.9930 0.9900 0.9870 0.9800
1071.809266 0.9760 0.9670 0.9560 0.9450 0.9251
1076.154736 0.9160 0.9160 0.9300 0.9450 0.9560
1080.500207 0.9670 0.9800 0.9930 1.0020 1.0020
1084.845677 1.0080 1.0140 1.0210 1.0210 1.0230
1089.191148 1.0230 1.0240 1.0250 1.0290 1.0310
1093.536618 1.0320 1.0320 1.0320 1.0340 1.0320
1097.882088 1.0340 1.0340 1.0350 1.0350 1.0350
1102.227559 1.0360 1.0360 1.0360 1.0360 1.0360
1106.573029 1.0360 1.0360 1.0360 1.0360 1.0380
1110.918500 1.0380 1.0390 1.0380 1.0380 1.0380
1115.263970 1.0380 1.0350 1.0340 1.0320 1.0310
1119.609440 1.0290 1.0290 1.0280 1.0280 1.0290
1123.954911 1.0290 1.0310 1.0310 1.0290 1.0280
1128.300381 1.0250 1.0240 1.0190 1.0160 1.0160
1132.645852 1.0170 1.0190 1.0200 1.0210 1.0210
1136.991322 1.0210 1.0210 1.0200 1.0190 1.0190
1141.336792 1.0140 1.0100 1.0050 1.0010 1.0080
1145.682263 1.0120 1.0170 1.0210 1.0240 1.0270
1150.027733 1.0280 1.0280 1.0280 1.0310 1.0310
1154.373204 1.0320 1.0320 1.0320 1.0320 1.0320
1158.718674 1.0340 1.0340 1.0340 1.0340 1.0320
1163.064144 1.0340 1.0340 1.0350 1.0350 1.0350
1167.409615 1.0350 1.0350 1.0350 1.0350 1.0340
1171.755085 1.0310 1.0290 1.0280 1.0270 1.0250
1176.100555 1.0230 1.0210 1.0160 1.0100 1.0020
1180.446026 0.9970 0.9910 0.9800 0.9780 0.9790
1184.791496 0.9870 0.9980 1.0000 1.0010 1.0100
1189.136967 1.0140 1.0160 1.0190 1.0210 1.0210
1193.482437 1.0210 1.0200 1.0170 1.0170 1.0160
1197.827907 1.0160 1.0140 1.0120 1.0090 1.0040
1202.173378 0.9980 0.9910 0.9850 0.9760 0.9750
1206.518848 0.9760 0.9780 0.9850 0.9900 0.9940
1210.864319 0.9980 1.0000 1.0000 0.9980 0.9980
1215.209789 0.9980 0.9940 0.9930 0.9910 0.9890
1219.555259 0.9860 0.9860 0.9820 0.9780 0.9750
1223.900730 0.9710 0.9650 0.9560 0.9490 0.9410
1228.246200 0.9270 0.9110 0.8960 0.8711 0.8481
1232.591671 0.8100 0.7760 0.7230 0.6750 0.5272
1236.937141 0.5011 0.4870 0.4740 0.4461 0.4141
1241.282611 0.3779 0.2560 0.2500 0.2530 0.2790
1245.628082 0.3020 0.4257 0.4270 0.4668 0.5088
1249.973552 0.5420 0.5840 0.6510 0.6590 0.6600
1254.319023 0.6630 0.6630 0.6580 0.6451 0.6321
1258.664493 0.6130 0.5790 0.5590 0.4891 0.4011
1263.009963 0.3591 0.2314 0.2220 0.2270 0.2539
1267.355434 0.3330 0.4000 0.4570 0.5499 0.6149
1271.700904 0.6659 0.7518 0.7540 0.7759 0.8029
1276.046374 0.8200 0.8310 0.8500 0.8580 0.8690
1280.391845 0.8730 0.8800 0.8850 0.8860 0.8890
1284.737315 0.8890 0.8820 0.8800 0.8730 0.8650
1289.082786 0.8560 0.8510 0.8430 0.8400 0.8400
1293.428256 0.8400 0.8410 0.8410 0.8370 0.8310
1297.773726 0.8220 0.8090 0.7940 0.7761 0.7611
1302.119197 0.7420 0.7380 0.7260 0.7090 0.6860
1306.464667 0.6530 0.6261 0.6061 0.5851 0.5850
1310.810138 0.6210 0.6560 0.7170 0.7650 0.7840
1315.155608 0.8130 0.8310 0.8500 0.8580 0.8700
1319.501078 0.8780 0.8880 0.8920 0.8950 0.8990
1323.846549 0.9030 0.9100 0.9120 0.9140 0.9150
1328.192019 0.9180 0.9190 0.9200 0.9220 0.9230
1332.537490 0.9230 0.9200 0.9190 0.9160 0.9120
1336.882960 0.9100 0.8970 0.8950 0.8970 0.8930
1341.228430 0.8880 0.8800 0.8740 0.8710 0.8730
1345.573901 0.8770 0.8810 0.8850 0.8910 0.8960
1349.919371 0.8950 0.8860 0.8840 0.8820 0.8820
1354.264842 0.8810 0.8780 0.8740 0.8660 0.8630
1358.610312 0.8650 0.8700 0.8760 0.9049 0.9309
1362.955782 0.9530 0.9720 0.9800 0.9900 0.9930
1367.301253 0.9940 0.9970 0.9980 0.9980 0.9980
1371.646723 0.9970 0.9980 0.9980 0.9980 1.0000
1375.992193 1.0000 1.0000 0.9980 0.9980 0.9980
1380.337664 0.9980 0.9980 0.9980 1.0000 1.0010
1384.683134 1.0020 1.0040 1.0040 1.0020 1.0010
1389.028605 1.0010 1.0000 1.0000 0.9980 0.9970
1393.374075 0.9970 0.9980 0.9980 0.9980 0.9970
1397.719545 0.9970 0.9970 0.9950 0.9950 0.9930
1402.065016 0.9870 0.9830 0.9820 0.9800 0.9790
1406.410486 0.9760 0.9750 0.9710 0.9700 0.9670
1410.755957 0.9630 0.9590 0.9550 0.9490 0.9420
1415.101427 0.9330 0.9250 0.9120 0.8990 0.8740
1419.446897 0.8550 0.8370 0.7472 0.6443 0.6320
1423.792368 0.6170 0.6170 0.6280 0.7130 0.7830
1428.137838 0.8110 0.8210 0.8220 0.8200 0.8160
1432.483309 0.7940 0.7750 0.7420 0.6480 0.5501
1436.828779 0.4851 0.4201 0.4649 0.4680 0.5089
1441.174249 0.5360 0.5610 0.5430 0.5350 0.5310
1445.519720 0.5080 0.5310 0.5549 0.5889 0.6179
1449.865190 0.6751 0.7130 0.7430 0.7580 0.7710
1454.210661 0.7940 0.8209 0.8509 0.8699 0.8839
1458.556131 0.8860 0.8880 0.8890 0.8890 0.8920
1462.901601 0.9030 0.9110 0.9190 0.9220 0.9260
1467.247072 0.9300 0.9330 0.9340 0.9370 0.9400
1471.592542 0.9410 0.9440 0.9460 0.9490 0.9520
1475.938013 0.9490 0.9480 0.9460 0.9440 0.9420
1480.283483 0.9410 0.9380 0.9340 0.9330 0.9310
1484.628953 0.9300 0.9260 0.9250 0.9230 0.9220
1488.974424 0.9200 0.9190 0.9140 0.9110 0.9050
1493.319894 0.9030 0.8990 0.8970 0.8930 0.8910
1497.665364 0.8890 0.8880 0.8780 0.8740 0.8670
1502.010835 0.8590 0.8560 0.8500 0.8440 0.8400
1506.356305 0.8350 0.8310 0.8250 0.8160 0.8100
1510.701776 0.8060 0.7990 0.7970 0.7920 0.7910
1515.047246 0.7860 0.7800 0.7750 0.7690 0.7650
1519.392716 0.7580 0.7570 0.7520 0.7490 0.7420
1523.738187 0.7380 0.7310 0.7300 0.7270 0.7260
1528.083657 0.7230 0.7130 0.7080 0.7020 0.6960
1532.429128 0.6890 0.6850 0.6790 0.6740 0.6591
1536.774598 0.6470 0.6300 0.6280 0.6180 0.6080
1541.120068 0.5960 0.5760 0.5610 0.5580 0.5490
1545.465539 0.5400 0.5340 0.5340 0.5240 0.5210
1549.811009 0.5190 0.5160 0.5140 0.5140 0.5160
1554.156480 0.5160 0.5200 0.5230 0.5310 0.5350
1558.501950 0.5360 0.5400 0.5699 0.5880 0.5950
1562.847420 0.5980 0.5990 0.5990 0.6020 0.6170
1567.192891 0.6290 0.6370 0.6430 0.6490 0.6620
1571.538361 0.6740 0.6820 0.6890 0.6890 0.6920
1575.883832 0.6960 0.6980 0.7010 0.7040 0.7050
1580.229302 0.7070 0.7080 0.7110 0.7120 0.7130
1584.574772 0.7150 0.7220 0.7220 0.7240 0.7280
1588.920243 0.7320 0.7390 0.7450 0.7500 0.7580
1593.265713 0.7680 0.7760 0.7820 0.7900 0.7950
1597.611183 0.8090 0.8130 0.8170 0.8310 0.8410
1601.956654 0.8540 0.8650 0.8740 0.8800 0.8890
1606.302124 0.8930 0.9010 0.9100 0.9150 0.9230
1610.647595 0.9290 0.9310 0.9350 0.9440 0.9440
1614.993065 0.9520 0.9550 0.9560 0.9590 0.9630
1619.338535 0.9640 0.9640 0.9670 0.9680 0.9720
1623.684006 0.9760 0.9760 0.9790 0.9820 0.9830
1628.029476 0.9850 0.9860 0.9870 0.9890 0.9910
1632.374947 0.9930 0.9950 0.9980 0.9980 1.0000
1636.720417 1.0010 1.0130 1.0140 1.0140 1.0140
1641.065887 1.0170 1.0190 1.0190 1.0200 1.0210
1645.411358 1.0240 1.0250 1.0270 1.0270 1.0250
1649.756828 1.0240 1.0240 1.0230 1.0210 1.0200
1654.102299 1.0140 1.0130 1.0130 1.0120 1.0100
1658.447769 1.0100 1.0090 1.0060 1.0050 1.0040
1662.793239 1.0040 1.0020 1.0020 1.0010 1.0000
1667.138710 1.0000 1.0000 1.0000 1.0010 1.0010
1671.484180 1.0010 0.9980 0.9980 0.9980 0.9980
1675.829651 0.9980 1.0000 1.0000 1.0000 1.0000
1680.175121 1.0000 1.0000 1.0000 1.0000 1.0000
1684.520591 1.0000 1.0000 1.0000 1.0000 1.0000
1688.866062 1.0000 1.0000 1.0000 1.0000 0.9980
1693.211532 0.9980 0.9980 0.9980 1.0000 1.0000
1697.557003 1.0000 1.0000 1.0000 1.0000 1.0000
1701.902473 0.9980 1.0010 1.0010 1.0010 1.0010
1706.247943 1.0010 1.0040 1.0040 1.0010 1.0010
1710.593414 1.0000 1.0000 1.0000 1.0000 1.0000
1714.938884 1.0000 1.0000 1.0000 1.0000 1.0000
1719.284354 1.0000 1.0020 1.0020 1.0000 1.0000
1723.629825 1.0000 1.0000 1.0000 1.0000 1.0000
1727.975295 1.0000 1.0000 1.0000 1.0000 1.0000
1732.320766 1.0000 0.9980 0.9980 0.9980 0.9980
1736.666236 0.9980 0.9970 0.9970 0.9970 0.9980
1741.011706 0.9980 1.0000 0.9980 0.9980 0.9980
1745.357177 0.9980 0.9980 0.9980 0.9980 0.9980
1749.702647 0.9980 1.0000 1.0000 1.0010 1.0000
1754.048118 1.0000 1.0000 1.0000 1.0000 1.0000
1758.393588 1.0000 1.0000 1.0000 1.0000 1.0000
1762.739058 1.0010 1.0010 1.0010 1.0020 1.0020
1767.084529 1.0010 1.0010 1.0010 1.0010 1.0010
1771.429999 1.0020 1.0040 1.0040 1.0040 1.0040
1775.775470 1.0050 1.0040 1.0020 1.0020 1.0010
1780.120940 1.0010 1.0010 1.0010 1.0010 1.0010
1784.466410 1.0010 1.0010 1.0010 1.0010 1.0010
1788.811881 1.0010 1.0010 1.0010 1.0010 1.0000
1793.157351 1.0000 1.0000 1.0010 1.0000 1.0000
1797.502822 0.9980 0.9980 0.9980 0.9980 0.9970
1801.848292 0.9970 0.9970 0.9970 0.9970 0.9970
1806.193762 0.9970 0.9970 0.9970 0.9980 0.9980
1810.539233 0.9980 0.9970 0.9970 0.9970 0.9980
1814.884703 0.9970 0.9970 0.9950 0.9940 0.9940
1819.230173 0.9940 0.9940 0.9940 0.9940 0.9940
1823.575644 0.9940 0.9940 0.9940 0.9950 0.9950
1827.921114 0.9950 0.9950 0.9950 0.9950 0.9950
1832.266585 0.9950 0.9950 0.9940 0.9940 0.9940
1836.612055 0.9940 0.9930 0.9930 0.9930 0.9930
1840.957525 0.9930 0.9910 0.9900 0.9900 0.9910
1845.302996 0.9910 0.9930 0.9940 0.9940 0.9930
1849.648466 0.9930 0.9930 0.9910 0.9930 0.9910
1853.993937 0.9910 0.9910 0.9910 0.9900 0.9900
1858.339407 0.9900 0.9900 0.9890 0.9890 0.9890
1862.684877 0.9900 0.9900 0.9900 0.9910 0.9930
1867.030348 0.9930 0.9940 0.9940 0.9940 0.9940
1871.375818 0.9940 0.9970 0.9980 0.9980 0.9980
1875.721289 0.9980 0.9980 0.9980 0.9980 0.9950
1880.066759 0.9950 0.9950 1.0000 1.0000 0.9940
1884.412229 0.9940 0.9940 0.9930 0.9930 0.9930
1888.757700 0.9930 0.9940 0.9950 0.9970 0.9970
1893.103170 0.9970 0.9970 0.9970 0.9970 0.9970
1897.448641 0.9970 0.9970 0.9970 0.9970 0.9970
1901.794111 0.9970 0.9970 0.9970 0.9980 0.9980
1906.139581 0.9970 0.9970 0.9950 0.9940 0.9940
1910.485052 0.9940 0.9940 0.9970 0.9950 0.9950
1914.830522 0.9950 0.9950 0.9950 0.9950 0.9950
1919.175992 0.9950 0.9950 0.9950 0.9950 0.9950
1923.521463 0.9950 0.9970 0.9970 0.9970 0.9980
1927.866933 0.9980 0.9980 0.9980 0.9980 0.9980
1932.212404 0.9980 0.9980 0.9980 1.0000 0.9980
1936.557874 0.9950 0.9950 0.9980 0.9980 0.9980
1940.903344 0.9980 1.0000 1.0000 1.0000 1.0000
1945.248815 1.0000 1.0000 1.0000 1.0000 1.0000
1949.594285 0.9980 0.9980 0.9980 0.9980 0.9980
1953.939756 0.9980 0.9980 0.9980 0.9980 1.0000
1958.285226 1.0000 1.0000 1.0000 1.0000 1.0000
1962.630696 1.0000 1.0000 1.0000 1.0000 1.0000
1966.976167 1.0010 1.0010 1.0010 1.0010 1.0000
1971.321637 1.0000 1.0010 1.0010 1.0010 1.0000
1975.667108 1.0010 1.0010 1.0010 1.0010 1.0000
1980.012578 1.0000 1.0000 1.0000 1.0000 1.0000
1984.358048 1.0010 1.0010 1.0010 1.0010 1.0010
1988.703519 1.0000 1.0000 1.0000 1.0000 1.0000
1993.048989 1.0000 1.0000 1.0000 1.0000 1.0000
1997.394460 1.0000 1.0000 1.0000 1.0050 1.0045
2001.739930 1.0040 1.0040 1.0040 1.0030 1.0020
2006.085400 1.0015 1.0010 1.0010 1.0010 1.0010
2010.430871 1.0010 1.0010 1.0010 0.9995 0.9980
2014.776341 0.9975 0.9970 0.9960 0.9950 0.9950
2019.121812 0.9950 0.9960 0.9970 0.9975 0.9980
2023.467282 0.9980 0.9980 0.9980 0.9980 0.9980
2027.812752 0.9980 0.9980 0.9980 0.9990 1.0000
2032.158223 1.0000 1.0000 1.0005 1.0010 1.0010
2036.503693 1.0010 1.0010 1.0010 1.0010 1.0010
2040.849163 1.0034 1.0059 1.0075 1.0090 1.0095
2045.194634 1.0100 1.0110 1.0120 1.0120 1.0120
2049.540104 1.0120 1.0120 1.0110 1.0100 1.0095
2053.885575 1.0090 1.0085 1.0080 1.0070 1.0060
2058.231045 1.0050 1.0040 1.0030 1.0020 1.0015
2062.576515 1.0010 1.0005 1.0000 1.0010 1.0020
2066.921986 1.0020 1.0020 1.0020 1.0020 1.0034
2071.267456 1.0049 1.0050 1.0050 1.0012 0.9972
2075.612927 0.9970 0.9970 0.9994 1.0019 1.0020
2079.958397 1.0020 1.0020 1.0020 1.0020 1.0020
2084.303867 1.0029 1.0039 1.0045 1.0050 1.0026
2088.649338 1.0001 1.0000 1.0000 1.0019 1.0039
2092.994808 1.0031 1.0021 1.0015 1.0010 1.0010
2097.340279 1.0010 1.0010 1.0010 1.0005 1.0000
2101.685749 1.0005 1.0010 1.0005 1.0000 1.0000
2106.031219 1.0000 0.9991 0.9981 0.9980 0.9980
2110.376690 0.9989 0.9999 1.0005 1.0010 1.0015
2114.722160 1.0020 1.0020 1.0020 1.0020 1.0020
2119.067631 1.0020 1.0020 1.0020 1.0020 1.0029
2123.413101 1.0039 1.0031 1.0021 1.0015 1.0010
2127.758571 1.0010 1.0010 1.0010 1.0010 1.0010
2132.104042 1.0010 1.0010 1.0010 1.0010 1.0010
2136.449512 1.0010 1.0010 1.0010 1.0010 1.0010
2140.794982 1.0010 1.0010 1.0010 1.0006 1.0000
2145.140453 1.0000 1.0000 1.0005 1.0010 1.0010
2149.485923 1.0010 1.0010 1.0010 1.0006 1.0000
2153.831394 1.0000 1.0000 1.0000 1.0000 1.0000
2158.176864 1.0000 1.0000 1.0000 1.0000 1.0000
2162.522334 1.0005 1.0010 1.0010 1.0010 1.0010
2166.867805 1.0010 1.0010 1.0010 1.0010 1.0010
2171.213275 1.0010 1.0010 1.0006 1.0000 1.0000
2175.558746 1.0000 0.9991 0.9981 0.9980 0.9980
2179.904216 0.9980 0.9980 0.9980 0.9980 0.9980
2184.249686 0.9980 0.9989 0.9999 0.9991 0.9981
2188.595157 0.9980 0.9980 0.9980 0.9980 0.9980
2192.940627 0.9980 0.9980 0.9980 0.9976 0.9971
2197.286098 0.9961 0.9951 0.9950 0.9950 0.9946
2201.631568 0.9941 0.9936 0.9931 0.9930 0.9930
2205.977038 0.9917 0.9902 0.9900 0.9900 0.9900
2210.322509 0.9900 0.9900 0.9900 0.9900 0.9900
2214.667979 0.9896 0.9891 0.9890 0.9890 0.9890
2219.013450 0.9890 0.9890 0.9890 0.9890 0.9890
2223.358920 0.9890 0.9890 0.9890 0.9890 0.9890
2227.704390 0.9890 0.9890 0.9890 0.9890 0.9890
2232.049861 0.9894 0.9899 0.9900 0.9900 0.9900
2236.395331 0.9900 0.9900 0.9900 0.9900 0.9900
2240.740802 0.9900 0.9900 0.9900 0.9900 0.9900
2245.086272 0.9900 0.9900 0.9900 0.9896 0.9891
2249.431742 0.9890 0.9890 0.9894 0.9899 0.9896
2253.777213 0.9891 0.9890 0.9890 0.9890 0.9890
2258.122683 0.9882 0.9872 0.9870 0.9870 0.9870
2262.468153 0.9870 0.9870 0.9870 0.9866 0.9861
2266.813624 0.9860 0.9860 0.9860 0.9860 0.9856
2271.159094 0.9851 0.9842 0.9832 0.9830 0.9830
2275.504565 0.9826 0.9821 0.9808 0.9793 0.9778
2279.850035 0.9763 0.9752 0.9742 0.9728 0.9713
2284.195505 0.9706 0.9701 0.9692 0.9682 0.9680
2288.540976 0.9680 0.9680 0.9680 0.9680 0.9680
2292.886446 0.9668 0.9653 0.9646 0.9641 0.9636
2297.231917 0.9631 0.9630 0.9630 0.9634 0.9639
2301.577387 0.9652 0.9667 0.9686 0.9706 0.9710
2305.922857 0.9710 0.9714 0.9719 0.9720 0.9720
2310.268328 0.9728 0.9738 0.9740 0.9740 0.9744
2314.613798 0.9749 0.9754 0.9759 0.9768 0.9778
2318.959269 0.9780 0.9780 0.9784 0.9789 0.9794
2323.304739 0.9799 0.9812 0.9827 0.9842 0.9857
2327.650209 0.9876 0.9896 0.9904 0.9909 0.9918
2331.995680 0.9928 0.9922 0.9912 0.9906 0.9901
2336.341150 0.9896 0.9891 0.9882 0.9872 0.9870
2340.686621 0.9870 0.9866 0.9861 0.9848 0.9833
2345.032091 0.9830 0.9830 0.9830 0.9830 0.9830
2349.377561 0.9830 0.9830 0.9830 0.9830 0.9830
2353.723032 0.9830 0.9830 0.9818 0.9803 0.9796
2358.068502 0.9791 0.9790 0.9790 0.9790 0.9790
2362.413972 0.9790 0.9790 0.9790 0.9790 0.9790
2366.759443 0.9790 0.9790 0.9790 0.9790 0.9790
2371.104913 0.9790 0.9790 0.9790 0.9790 0.9790
2375.450384 0.9790 0.9786 0.9781 0.9780 0.9780
2379.795854 0.9780 0.9780 0.9780 0.9780 0.9753
2384.141324 0.9718 0.9695 0.9675 0.9670 0.9670
2388.486795 0.9704 0.9749 0.9768 0.9777 0.9780
2392.832265 0.9780 0.9784 0.9789 0.9786 0.9781
2397.177736 0.9780 0.9780 0.9780 0.9780 0.9780
2401.523206 0.9780 0.9780 0.9780 0.9784 0.9789
2405.868676 0.9794 0.9799 0.9800 0.9800 0.9807
2410.214147 0.9817 0.9824 0.9829 0.9830 0.9830
2414.559617 0.9837 0.9847 0.9850 0.9850 0.9850
2418.905088 0.9850 0.9850 0.9850 0.9850 0.9850
2423.250558 0.9850 0.9850 0.9850 0.9850 0.9850
2427.596028 0.9850 0.9850 0.9850 0.9854 0.9859
2431.941499 0.9860 0.9860 0.9860 0.9860 0.9860
2436.286969 0.9860 0.9860 0.9860 0.9860 0.9860
2440.632440 0.9860 0.9860 0.9860 0.9860 0.9860
2444.977910 0.9860 0.9860 0.9860 0.9860 0.9860
2449.323380 0.9856 0.9851 0.9850 0.9850 0.9854
2453.668851 0.9859 0.9860 0.9860 0.9860 0.9860
2458.014321 0.9860 0.9860 0.9860 0.9860 0.9860
2462.359791 0.9860 0.9860 0.9860 0.9860 0.9860
2466.705262 0.9860 0.9860 0.9860 0.9860 0.9860
2471.050732 0.9860 0.9860 0.9860 0.9860 0.9860
2475.396203 0.9860 0.9860 0.9860 0.9860 0.9860
2479.741673 0.9860 0.9860 0.9860 0.9860 0.9860
2484.087143 0.9860 0.9860 0.9857 0.9852 0.9850
2488.432614 0.9850 0.9840 0.9825 0.9820 0.9820
2492.778084 0.9813 0.9803 0.9800 0.9800 0.9807
2497.123555 0.9817 0.9820 0.9820 0.9823 0.9828
2501.469025 0.9837 0.9847 0.9853 0.9858 0.9860
2505.814495 0.9860 0.9860 0.9860 0.9860 0.9860
2510.159966 0.9860 0.9860 0.9860 0.9860 0.9857
2514.505436 0.9852 0.9850 0.9850 0.9850 0.9850
2518.850907 0.9850 0.9850 0.9850 0.9850 0.9850
2523.196377 0.9850 0.9850 0.9850 0.9850 0.9850
2527.541847 0.9850 0.9850 0.9850 0.9850 0.9850
2531.887318 0.9850 0.9850 0.9850 0.9850 0.9850
2536.232788 0.9850 0.9850 0.9850 0.9850 0.9850
2540.578259 0.9850 0.9850 0.9850 0.9843 0.9833
2544.923729 0.9830 0.9830 0.9830 0.9830 0.9830
2549.269199 0.9830 0.9830 0.9830 0.9830 0.9830
2553.614670 0.9827 0.9822 0.9810 0.9795 0.9790
2557.960140 0.9790 0.9790 0.9790 0.9790 0.9790
2562.305611 0.9790 0.9790 0.9790 0.9790 0.9790
2566.651081 0.9790 0.9790 0.9790 0.9790 0.9790
2570.996551 0.9790 0.9790 0.9799 0.9815 0.9820
2575.342022 0.9820 0.9820 0.9820 0.9820 0.9820
2579.687492 0.9820 0.9820 0.9820 0.9820 0.9811
2584.032962 0.9796 0.9790 0.9790 0.9790 0.9790
2588.378433 0.9790 0.9790 0.9799 0.9814 0.9820
2592.723903 0.9820 0.9820 0.9820 0.9820 0.9820
2597.069374 0.9820 0.9820 0.9820 0.9820 0.9811
2601.414844 0.9796 0.9790 0.9790 0.9790 0.9790
2605.760314 0.9790 0.9790 0.9790 0.9790 0.9790
2610.105785 0.9790 0.9790 0.9790 0.9790 0.9790
2614.451255 0.9790 0.9790 0.9790 0.9790 0.9790
2618.796726 0.9790 0.9790 0.9790 0.9790 0.9790
2623.142196 0.9790 0.9790 0.9790 0.9790 0.9790
2627.487666 0.9790 0.9790 0.9790 0.9799 0.9814
2631.833137 0.9820 0.9820 0.9820 0.9820 0.9820
2636.178607 0.9820 0.9820 0.9820 0.9820 0.9820
2640.524078 0.9820 0.9820 0.9820 0.9820 0.9820
2644.869548 0.9820 0.9814 0.9804 0.9800 0.9800
2649.215018 0.9800 0.9800 0.9800 0.9800 0.9794
2653.560489 0.9784 0.9780 0.9780 0.9780 0.9780
2657.905959 0.9780 0.9780 0.9780 0.9780 0.9774
2662.251430 0.9764 0.9760 0.9760 0.9766 0.9776
2666.596900 0.9780 0.9780 0.9780 0.9780 0.9774
2670.942370 0.9764 0.9760 0.9760 0.9757 0.9752
2675.287841 0.9742 0.9727 0.9714 0.9704 0.9700
2679.633311 0.9700 0.9700 0.9700 0.9700 0.9700
2683.978781 0.9700 0.9700 0.9700 0.9700 0.9700
2688.324252 0.9700 0.9700 0.9700 0.9700 0.9700
2692.669722 0.9700 0.9700 0.9703 0.9708 0.9710
2697.015193 0.9710 0.9710 0.9710 0.9710 0.9710
2701.360663 0.9710 0.9710 0.9710 0.9710 0.9707
2705.706133 0.9702 0.9700 0.9700 0.9700 0.9700
2710.051604 0.9700 0.9700 0.9703 0.9708 0.9713
2714.397074 0.9718 0.9720 0.9720 0.9726 0.9736
2718.742545 0.9743 0.9748 0.9750 0.9750 0.9753
2723.088015 0.9758 0.9760 0.9760 0.9760 0.9760
2727.433485 0.9760 0.9760 0.9760 0.9760 0.9757
2731.778956 0.9752 0.9747 0.9742 0.9735 0.9725
2736.124426 0.9717 0.9712 0.9710 0.9710 0.9710
2740.469897 0.9710 0.9707 0.9702 0.9700 0.9700
2744.815367 0.9700 0.9700 0.9700 0.9700 0.9700
2749.160837 0.9700 0.9700 0.9700 0.9700 0.9700
2753.506308 0.9700 0.9700 0.9700 0.9700 0.9703
2757.851778 0.9708 0.9710 0.9710 0.9710 0.9710
2762.197249 0.9710 0.9710 0.9710 0.9710 0.9707
2766.542719 0.9702 0.9700 0.9700 0.9700 0.9700
2770.888189 0.9700 0.9700 0.9695 0.9685 0.9680
2775.233660 0.9680 0.9680 0.9680 0.9680 0.9680
2779.579130 0.9680 0.9680 0.9680 0.9680 0.9680
2783.924601 0.9680 0.9680 0.9680 0.9680 0.9680
2788.270071 0.9680 0.9680 0.9680 0.9680 0.9685
2792.615541 0.9695 0.9700 0.9700 0.9695 0.9685
2796.961012 0.9680 0.9680 0.9680 0.9680 0.9677
2801.306482 0.9673 0.9670 0.9670 0.9665 0.9655
2805.651952 0.9648 0.9643 0.9640 0.9640 0.9640
2809.997423 0.9640 0.9638 0.9633 0.9625 0.9615
2814.342893 0.9608 0.9603 0.9600 0.9600 0.9600
2818.688364 0.9600 0.9593 0.9578 0.9551 0.9511
2823.033834 0.9454 0.9379 0.9321 0.9281 0.9253
2827.379304 0.9238 0.9235 0.9245 0.9271 0.9316
2831.724775 0.9347 0.9362 0.9386 0.9422 0.9450
2836.070245 0.9470 0.9482 0.9487 0.9490 0.9490
2840.415716 0.9488 0.9483 0.9475 0.9465 0.9451
2844.761186 0.9431 0.9411 0.9391 0.9373 0.9358
2849.106656 0.9332 0.9292 0.9226 0.9131 0.9035
2853.452127 0.8941 0.8883 0.8868 0.8860 0.8860
2857.797597 0.8860 0.8860 0.8865 0.8875 0.8880
2862.143068 0.8880 0.8873 0.8858 0.8841 0.8821
2866.488538 0.8794 0.8759 0.8731 0.8711 0.8700
2870.834008 0.8700 0.8702 0.8707 0.8749 0.8833
2875.179479 0.8898 0.8938 0.8978 0.9018 0.9056
2879.524949 0.9091 0.9125 0.9160 0.9189 0.9209
2883.870420 0.9222 0.9227 0.9230 0.9230 0.9228
2888.215890 0.9223 0.9220 0.9220 0.9213 0.9198
2892.561360 0.9181 0.9161 0.9143 0.9128 0.9118
2896.906831 0.9113 0.9108 0.9103 0.9079 0.9029
2901.252301 0.8975 0.8915 0.8842 0.8751 0.8661
2905.597771 0.8571 0.8477 0.8377 0.8232 0.8027
2909.943242 0.7859 0.7739 0.7670 0.7670 0.7674
2914.288712 0.7684 0.7705 0.7740 0.7791 0.7866
2918.634183 0.7918 0.7938 0.7981 0.8057 0.8109
2922.979653 0.8129 0.8144 0.8154 0.8162 0.8167
2927.325123 0.8178 0.8198 0.8212 0.8217 0.8224
2931.670594 0.8234 0.8248 0.8268 0.8286 0.8301
2936.016064 0.8312 0.8317 0.8330 0.8355 0.8389
2940.361535 0.8434 0.8462 0.8467 0.8472 0.8477
2944.707005 0.8480 0.8480 0.8478 0.8473 0.8470
2949.052475 0.8470 0.8448 0.8393 0.8311 0.8186
2953.397946 0.8071 0.7971 0.7892 0.7847 0.7786
2957.743416 0.7701 0.7377 0.6698 0.6248 0.6143
2962.088887 0.6042 0.5948 0.5851 0.5751 0.5653
2966.434357 0.5558 0.5463 0.5368 0.5310 0.5310
2970.779827 0.5359 0.5489 0.5616 0.5737 0.5851
2975.125298 0.5956 0.6061 0.6166 0.6255 0.6320
2979.470768 0.6460 0.6720 0.6960 0.7170 0.7372
2983.816239 0.7562 0.7744 0.7914 0.8069 0.8198
2988.161709 0.8315 0.8410 0.8485 0.8525 0.8577
2992.507179 0.8647 0.8694 0.8704 0.8714 0.8724
2996.852650 0.8726 0.8716 0.8703 0.8683 0.8663
3001.198120 0.8643 0.8621 0.8596 0.8573 0.8553
3005.543590 0.8533 0.8513 0.8502 0.8507 0.8523
3009.889061 0.8558 0.8589 0.8614 0.8654 0.8719
3014.234531 0.8784 0.8849 0.8901 0.8931 0.8957
3018.580002 0.8977 0.9001 0.9031 0.9062 0.9097
3022.925472 0.9137 0.9187 0.9234 0.9274 0.9302
3027.270942 0.9307 0.9314 0.9324 0.9342 0.9377
3031.616413 0.9407 0.9427 0.9442 0.9447 0.9457
3035.961883 0.9477 0.9495 0.9510 0.9522 0.9527
3040.307354 0.9533 0.9543 0.9552 0.9557 0.9562
3044.652824 0.9567 0.9570 0.9570 0.9573 0.9583
3048.998294 0.9590 0.9590 0.9590 0.9590 0.9592
3053.343765 0.9597 0.9600 0.9600 0.9600 0.9600
3057.689235 0.9600 0.9600 0.9600 0.9600 0.9602
3062.034706 0.9607 0.9613 0.9623 0.9630 0.9630
3066.380176 0.9630 0.9630 0.9630 0.9630 0.9630
3070.725646 0.9630 0.9630 0.9630 0.9630 0.9630
3075.071117 0.9630 0.9630 0.9630 0.9630 0.9630
3079.416587 0.9630 0.9630 0.9630 0.9632 0.9637
3083.762058 0.9642 0.9647 0.9650 0.9650 0.9650
3088.107528 0.9650 0.9653 0.9663 0.9672 0.9677
3092.452998 0.9680 0.9680 0.9680 0.9680 0.9680
3096.798469 0.9680 0.9680 0.9680 0.9680 0.9680
3101.143939 0.9683 0.9693 0.9700 0.9700 0.9700
3105.489410 0.9700 0.9700 0.9700 0.9700 0.9700
3109.834880 0.9703 0.9713 0.9720 0.9720 0.9718
3114.180350 0.9713 0.9710 0.9710 0.9710 0.9710
3118.525821 0.9710 0.9710 0.9710 0.9710 0.9710
3122.871291 0.9710 0.9710 0.9710 0.9710 0.9710
3127.216761 0.9710 0.9710 0.9710 0.9710 0.9709
3131.562232 0.9704 0.9701 0.9706 0.9710 0.9710
3135.907702 0.9710 0.9710 0.9710 0.9710 0.9710
3140.253173 0.9710 0.9711 0.9716 0.9720 0.9720
3144.598643 0.9720 0.9720 0.9720 0.9720 0.9720
3148.944113 0.9720 0.9723 0.9733 0.9740 0.9740
3153.289584 0.9740 0.9740 0.9740 0.9740 0.9740
3157.635054 0.9740 0.9740 0.9740 0.9740 0.9740
3161.980525 0.9740 0.9740 0.9740 0.9740 0.9740
3166.325995 0.9740 0.9740 0.9740 0.9740 0.9740
3170.671465 0.9740 0.9740 0.9740 0.9740 0.9741
3175.016936 0.9746 0.9751 0.9756 0.9760 0.9760
3179.362406 0.9763 0.9773 0.9780 0.9780 0.9780
3183.707877 0.9780 0.9780 0.9780 0.9780 0.9780
3188.053347 0.9780 0.9780 0.9781 0.9786 0.9790
3192.398817 0.9790 0.9790 0.9790 0.9790 0.9790
3196.744288 0.9790 0.9790 0.9790 0.9790 0.9790
3201.089758 0.9790 0.9791 0.9796 0.9800 0.9800
3205.435229 0.9802 0.9812 0.9821 0.9826 0.9830
3209.780699 0.9830 0.9830 0.9830 0.9830 0.9830
3214.126169 0.9830 0.9830 0.9830 0.9830 0.9830
3218.471640 0.9830 0.9830 0.9830 0.9832 0.9842
3222.817110 0.9850 0.9850 0.9850 0.9850 0.9850
3227.162580 0.9850 0.9850 0.9850 0.9851 0.9856
3231.508051 0.9860 0.9860 0.9860 0.9860 0.9860
3235.853521 0.9860 0.9860 0.9860 0.9861 0.9866
3240.198992 0.9872 0.9882 0.9890 0.9890 0.9888
3244.544462 0.9878 0.9870 0.9870 0.9870 0.9870
3248.889932 0.9872 0.9882 0.9890 0.9890 0.9890
3253.235403 0.9890 0.9891 0.9896 0.9901 0.9906
3257.580873 0.9910 0.9910 0.9912 0.9922 0.9931
3261.926344 0.9936 0.9940 0.9940 0.9940 0.9940
3266.271814 0.9941 0.9946 0.9952 0.9962 0.9971
3270.617284 0.9976 0.9980 0.9980 0.9982 0.9992
3274.962755 1.0000 1.0000 1.0001 1.0006 1.0010
3279.308225 1.0010 1.0010 1.0010 1.0010 1.0010
3283.653696 1.0010 1.0010 1.0010 1.0010 1.0010
3287.999166 1.0010 1.0010 1.0010 1.0011 1.0016
3292.344636 1.0020 1.0020 1.0020 1.0020 1.0022
3296.690107 1.0032 1.0040 1.0040 1.0040 1.0040
3301.035577 1.0041 1.0046 1.0051 1.0056 1.0060
3305.381048 1.0060 1.0062 1.0072 1.0080 1.0080
3309.726518 1.0081 1.0086 1.0091 1.0096 1.0100
3314.071988 1.0100 1.0100 1.0100 1.0100 1.0100
3318.417459 1.0100 1.0100 1.0100 1.0100 1.0100
3322.762929 1.0100 1.0100 1.0100 1.0100 1.0100
3327.108400 1.0100 1.0100 1.0100 1.0100 1.0099
3331.453870 1.0094 1.0089 1.0084 1.0080 1.0080
3335.799340 1.0079 1.0069 1.0060 1.0060 1.0060
3340.144811 1.0060 1.0060 1.0060 1.0060 1.0060
3344.490281 1.0062 1.0072 1.0081 1.0086 1.0091
3348.835751 1.0096 1.0100 1.0100 1.0102 1.0111
3353.181222 1.0120 1.0120 1.0120 1.0120 1.0118
3357.526692 1.0109 1.0100 1.0100 1.0100 1.0100
3361.872163 1.0100 1.0100 1.0100 1.0100 1.0100
3366.217633 1.0100 1.0101 1.0111 1.0121 1.0131
3370.563103 1.0140 1.0140 1.0139 1.0134 1.0130
3374.908574 1.0130 1.0130 1.0130 1.0132 1.0147
3379.254044 1.0160 1.0160 1.0161 1.0166 1.0170
3383.599515 1.0170 1.0171 1.0181 1.0189 1.0179
3387.944985 1.0170 1.0170 1.0170 1.0170 1.0171
3392.290455 1.0181 1.0191 1.0201 1.0211 1.0221
3396.635926 1.0230 1.0230 1.0230 1.0230 1.0231
3400.981396 1.0236 1.0240 1.0240 1.0240 1.0240
3405.326867 1.0240 1.0240 1.0240 1.0240 1.0240
3409.672337 1.0240 1.0240 1.0240 1.0240 1.0240
3414.017807 1.0239 1.0234 1.0230 1.0230 1.0230
3418.363278 1.0230 1.0229 1.0219 1.0210 1.0210
3422.708748 1.0210 1.0210 1.0210 1.0210 1.0210
3427.054219 1.0210 1.0210 1.0210 1.0210 1.0210
3431.399689 1.0210 1.0210 1.0210 1.0205 1.0200
3435.745159 1.0195 1.0189 1.0179 1.0170 1.0170
3440.090630 1.0170 1.0165 1.0159 1.0149 1.0140
3444.436100 1.0140 1.0140 1.0140 1.0140 1.0140
3448.781570 1.0140 1.0140 1.0140 1.0140 1.0140
3453.127041 1.0140 1.0140 1.0140 1.0141 1.0151
3457.472511 1.0159 1.0149 1.0140 1.0140 1.0140
3461.817982 1.0135 1.0130 1.0130 1.0130 1.0125
3466.163452 1.0120 1.0120 1.0120 1.0120 1.0120
3470.508922 1.0125 1.0130 1.0130 1.0130 1.0125
3474.854393 1.0120 1.0120 1.0119 1.0109 1.0100
3479.199863 1.0100 1.0100 1.0100 1.0100 1.0100
3483.545334 1.0100 1.0095 1.0090 1.0090 1.0090
3487.890804 1.0085 1.0080 1.0080 1.0080 1.0080
3492.236274 1.0079 1.0070 1.0060 1.0060 1.0060
3496.581745 1.0060 1.0060 1.0055 1.0050 1.0050
3500.927215 1.0050 1.0050 1.0050 1.0050 1.0050
3505.272686 1.0045 1.0040 1.0040 1.0040 1.0040
3509.618156 1.0040 1.0040 1.0040 1.0040 1.0039
3513.963626 1.0029 1.0020 1.0020 1.0020 1.0020
3518.309097 1.0020 1.0020 1.0020 1.0020 1.0020
3522.654567 1.0015 1.0010 1.0010 1.0010 1.0010
3527.000038 1.0010 1.0010 1.0010 1.0015 1.0020
3531.345508 1.0020 1.0020 1.0020 1.0020 1.0020
3535.690978 1.0020 1.0020 1.0020 1.0020 1.0020
3540.036449 1.0010 1.0000 1.0000 1.0000 1.0000
3544.381919 1.0000 1.0000 1.0000 1.0000 1.0000
3548.727389 1.0000 1.0000 1.0000 1.0000 1.0000
3553.072860 1.0000 1.0005 1.0010 1.0010 1.0010
3557.418330 1.0010 1.0010 1.0015 1.0020 1.0020
3561.763801 1.0020 1.0015 1.0010 1.0010 1.0010
3566.109271 1.0010 1.0010 1.0010 1.0010 1.0015
3570.454741 1.0020 1.0010 1.0000 1.0000 1.0000
3574.800212 1.0000 1.0000 1.0000 1.0000 0.9990
3579.145682 0.9980 0.9980 0.9980 0.9980 0.9980
3583.491153 0.9990 1.0000 1.0000 1.0000 1.0000
3587.836623 1.0000 1.0000 1.0000 0.9990 0.9980
3592.182093 0.9980 0.9980 0.9975 0.9970 0.9960
3596.527564 0.9950 0.9950 0.9950 0.9960 0.9970
3600.873034 0.9975 0.9980 0.9980 0.9980 0.9980
3605.218505 0.9980 0.9980 0.9980 0.9980 0.9980
3609.563975 0.9980 0.9980 0.9980 0.9980 0.9980
3613.909445 0.9980 0.9975 0.9970 0.9970 0.9970
3618.254916 0.9960 0.9950 0.9950 0.9950 0.9950
3622.600386 0.9950 0.9950 0.9950 0.9950 0.9950
3626.945857 0.9945 0.9940 0.9940 0.9940 0.9940
3631.291327 0.9940 0.9940 0.9940 0.9940 0.9940
3635.636797 0.9940 0.9940 0.9940 0.9940 0.9945
3639.982268 0.9950 0.9960 0.9970 0.9970 0.9970
3644.327738 0.9970 0.9970 0.9970 0.9970 0.9970
3648.673209 0.9970 0.9970 0.9970 0.9975 0.9980
3653.018679 0.9980 0.9980 0.9980 0.9980 0.9980
3657.364149 0.9980 0.9980 0.9980 0.9980 0.9980
3661.709620 0.9980 0.9980 0.9980 0.9980 0.9980
3666.055090 0.9980 0.9980 0.9980 0.9980 0.9980
3670.400560 0.9975 0.9970 0.9960 0.9950 0.9950
3674.746031 0.9950 0.9960 0.9969 0.9970 0.9970
3679.091501 0.9970 0.9970 0.9970 0.9970 0.9975
3683.436972 0.9980 0.9980 0.9980 0.9989 0.9999
3687.782442 1.0005 1.0010 1.0010 1.0010 1.0010
3692.127912 1.0010 1.0010 1.0010 1.0010 1.0010
3696.473383 1.0005 1.0000 0.9991 0.9981 0.9980
3700.818853 0.9980 0.9980 0.9980 0.9975 0.9970
3705.164324 0.9975 0.9980 0.9989 0.9999 1.0005
3709.509794 1.0010 1.0010 1.0010 1.0005 1.0000
3713.855264 0.9991 0.9981 0.9975 0.9970 0.9961
3718.200735 0.9951 0.9950 0.9950 0.9964 0.9979
3722.546205 0.9980 0.9980 0.9989 0.9999 1.0000
3726.891676 1.0000 1.0000 1.0000 1.0000 1.0000
3731.237146 1.0000 1.0000 1.0000 1.0000 1.0000
3735.582616 1.0000 1.0000 1.0000 0.9991 0.9981
3739.928087 0.9980 0.9980 0.9975 0.9970 0.9961
3744.273557 0.9951 0.9950 0.9950 0.9950 0.9950
3748.619028 0.9959 0.9969 0.9974 0.9979 0.9989
3752.964498 0.9999 0.9987 0.9972 0.9970 0.9970
3757.309968 0.9970 0.9970 0.9961 0.9951 0.9950
3761.655439 0.9950 0.9950 0.9950 0.9946 0.9941
3766.000909 0.9940 0.9940 0.9940 0.9940 0.9940
3770.346379 0.9940 0.9940 0.9940 0.9944 0.9949
3774.691850 0.9950 0.9950 0.9950 0.9950 0.9959
3779.037320 0.9969 0.9970 0.9970 0.9957 0.9942
3783.382791 0.9940 0.9940 0.9940 0.9940 0.9944
3787.728261 0.9949 0.9959 0.9969 0.9970 0.9970
3792.073731 0.9970 0.9970 0.9961 0.9951
##END=
