##TITLE=1,4-BUTANE DIAMINE
##JCAMP-DX=4.24
##DATA TYPE=INFRARED SPECTRUM
##CLASS=COBLENTZ
##ORIGIN=TENNESSEE EASTMAN COMPANY, RESEARCH LABORATORIES
##OWNER=COBLENTZ SOCIETY
Collection (C) 2018 copyright by the U.S. Secretary of Commerce
on behalf of the United States of America. All rights reserved.
##DATE=Not specified, most likely prior to 1970
##NAMES=1,4-butanediamine
##CAS REGISTRY NO=110-60-1
##MOLFORM=C4 H12 N2
##BP=63-66 C AT 15 mmHg
##SOURCE REFERENCE=COBLENTZ NO. 1871
##$NIST SOURCE=COBLENTZ
##$NIST IMAGE=cob1871
##SPECTROMETER/DATA SYSTEM=Not specified, most likely a prism, grating, or hybrid spectrometer.
##PATH LENGTH=SMEAR
##SAMPLING PROCEDURE=TRANSMISSION
##RESOLUTION=4
##DATA PROCESSING=DIGITIZED BY NIST FROM HARD COPY
##XUNITS=MICROMETERS
##YUNITS=TRANSMITTANCE
##XFACTOR=1.000000
##YFACTOR=1
##DELTAX=000.006819
##FIRSTX=2
##LASTX=15.9868
##FIRSTY=0.929
##MAXX=15.9868
##MINX=2
##MAXY=0.977
##MINY=0.006
##NPOINTS=2052
##XYDATA=(X++(Y..Y))
2.000000 0.9290 0.9290 0.9500 0.9670 0.9720
2.034113 0.9770 0.9770 0.9770 0.9720 0.9690
2.068000 0.9640 0.9600 0.9580 0.9580 0.9570
2.102113 0.9570 0.9580 0.9600 0.9620 0.9640
2.136000 0.9670 0.9670 0.9670 0.9650 0.9650
2.170113 0.9650 0.9650 0.9670 0.9670 0.9650
2.205000 0.9640 0.9620 0.9500 0.9450 0.9280
2.239113 0.9160 0.9020 0.8860 0.8780 0.8760
2.273000 0.8760 0.8760 0.8760 0.8750 0.8730
2.307113 0.8680 0.8640 0.8590 0.8590 0.8590
2.341000 0.8590 0.8590 0.8610 0.8690 0.8760
2.375113 0.8830 0.8880 0.8950 0.8980 0.9050
2.409000 0.9140 0.9210 0.9260 0.9330 0.9380
2.443113 0.9430 0.9450 0.9460 0.9480 0.9500
2.477000 0.9500 0.9520 0.9570 0.9580 0.9600
2.511113 0.9600 0.9620 0.9640 0.9640 0.9640
2.546000 0.9620 0.9620 0.9620 0.9620 0.9620
2.580113 0.9620 0.9620 0.9620 0.9620 0.9600
2.614000 0.9600 0.9580 0.9580 0.9570 0.9520
2.648113 0.9520 0.9500 0.9480 0.9430 0.9410
2.682000 0.9380 0.9330 0.9290 0.9240 0.9220
2.716113 0.9170 0.9160 0.9160 0.9140 0.9140
2.750000 0.9100 0.9090 0.9070 0.9020 0.8970
2.784113 0.8930 0.8880 0.8800 0.8690 0.8590
2.818000 0.8510 0.8400 0.8300 0.8210 0.8130
2.852113 0.8010 0.7870 0.7720 0.7600 0.7430
2.887000 0.7220 0.7020 0.6790 0.6430 0.6020
2.921113 0.5320 0.3850 0.3270 0.2320 0.1400
2.955000 0.1380 0.1400 0.1980 0.2310 0.2430
2.989113 0.2430 0.2150 0.2000 0.1710 0.1570
3.023000 0.1500 0.1430 0.1420 0.1450 0.1640
3.057113 0.1830 0.2020 0.2170 0.2610 0.2790
3.091000 0.2850 0.2910 0.2990 0.2990 0.3030
3.125113 0.3090 0.3180 0.3450 0.4020 0.4290
3.159000 0.4910 0.5170 0.5410 0.5820 0.5920
3.193113 0.6350 0.6670 0.6790 0.6950 0.7050
3.227000 0.7150 0.7240 0.7270 0.7290 0.7290
3.261113 0.7270 0.7220 0.7140 0.7050 0.6980
3.296000 0.6840 0.6470 0.6160 0.5830 0.5300
3.330113 0.4100 0.3300 0.2500 0.1690 0.1140
3.364000 0.0630 0.0080 0.0060 0.0060 0.0100
3.398113 0.0130 0.0170 0.0230 0.0290 0.0300
3.432000 0.0320 0.0290 0.0230 0.0220 0.0180
3.466113 0.0170 0.0150 0.0170 0.0350 0.0560
3.500000 0.0780 0.1230 0.1710 0.2290 0.2680
3.534113 0.2960 0.3590 0.3980 0.4170 0.4280
3.568000 0.4280 0.4170 0.4070 0.3980 0.3850
3.602113 0.3800 0.3800 0.4190 0.4500 0.4890
3.637000 0.5030 0.5150 0.5460 0.5710 0.5780
3.671113 0.5890 0.5990 0.6070 0.6070 0.6070
3.705000 0.6070 0.6090 0.6160 0.6210 0.6300
3.739113 0.6430 0.6590 0.6740 0.6930 0.7100
3.773000 0.7190 0.7310 0.7340 0.7440 0.7600
3.807113 0.7750 0.7840 0.7890 0.7990 0.8080
3.841000 0.8130 0.8200 0.8270 0.8320 0.8390
3.875113 0.8490 0.8570 0.8630 0.8680 0.8710
3.909000 0.8780 0.8830 0.8880 0.8950 0.8970
3.943113 0.8980 0.9020 0.9070 0.9090 0.9100
3.978000 0.9140 0.9170 0.9170 0.9220 0.9260
4.012113 0.9280 0.9290 0.9310 0.9330 0.9340
4.046000 0.9380 0.9380 0.9380 0.9410 0.9410
4.080113 0.9410 0.9430 0.9430 0.9460 0.9480
4.114000 0.9480 0.9480 0.9480 0.9480 0.9480
4.148113 0.9480 0.9500 0.9500 0.9500 0.9500
4.182000 0.9520 0.9520 0.9530 0.9530 0.9530
4.216113 0.9530 0.9530 0.9550 0.9570 0.9570
4.250000 0.9570 0.9570 0.9570 0.9550 0.9550
4.284113 0.9550 0.9550 0.9570 0.9580 0.9580
4.319000 0.9580 0.9580 0.9580 0.9580 0.9580
4.353113 0.9580 0.9580 0.9600 0.9580 0.9580
4.387000 0.9580 0.9600 0.9600 0.9600 0.9600
4.421113 0.9600 0.9600 0.9580 0.9580 0.9580
4.455000 0.9580 0.9600 0.9600 0.9600 0.9600
4.489113 0.9600 0.9600 0.9600 0.9600 0.9600
4.523000 0.9580 0.9570 0.9550 0.9550 0.9550
4.557113 0.9550 0.9550 0.9550 0.9570 0.9580
4.591000 0.9580 0.9600 0.9600 0.9580 0.9580
4.625113 0.9580 0.9580 0.9570 0.9570 0.9570
4.660000 0.9550 0.9550 0.9530 0.9530 0.9520
4.694113 0.9520 0.9500 0.9500 0.9480 0.9480
4.728000 0.9460 0.9460 0.9450 0.9450 0.9430
4.762113 0.9430 0.9430 0.9430 0.9430 0.9430
4.796000 0.9430 0.9410 0.9380 0.9360 0.9340
4.830113 0.9330 0.9290 0.9280 0.9280 0.9260
4.864000 0.9260 0.9240 0.9220 0.9220 0.9210
4.898113 0.9210 0.9210 0.9210 0.9210 0.9190
4.932000 0.9190 0.9170 0.9160 0.9160 0.9140
4.966113 0.9140 0.9140 0.9120 0.9120 0.9120
5.000000 0.9100 0.9090 0.9070 0.8980 0.8970
5.034113 0.8950 0.8930 0.8920 0.8860 0.8850
5.069000 0.8830 0.8810 0.8800 0.8760 0.8750
5.103113 0.8730 0.8710 0.8680 0.8660 0.8640
5.137000 0.8630 0.8630 0.8610 0.8610 0.8590
5.171113 0.8590 0.8570 0.8570 0.8570 0.8570
5.205000 0.8570 0.8570 0.8570 0.8590 0.8590
5.239113 0.8590 0.8630 0.8640 0.8640 0.8660
5.273000 0.8660 0.8680 0.8690 0.8710 0.8760
5.307113 0.8760 0.8780 0.8800 0.8800 0.8860
5.341000 0.8880 0.8900 0.8920 0.8920 0.8950
5.375113 0.8970 0.8980 0.8980 0.9000 0.9000
5.410000 0.9000 0.9020 0.9020 0.9020 0.9040
5.444113 0.9040 0.9040 0.9040 0.9070 0.9090
5.478000 0.9090 0.9100 0.9100 0.9120 0.9120
5.512113 0.9120 0.9120 0.9120 0.9120 0.9120
5.546000 0.9120 0.9100 0.9100 0.9090 0.9090
5.580113 0.9090 0.9070 0.9070 0.9070 0.9070
5.614000 0.9050 0.9040 0.9020 0.9020 0.9000
5.648113 0.8980 0.8970 0.8950 0.8930 0.8900
5.682000 0.8880 0.8860 0.8810 0.8780 0.8760
5.716113 0.8690 0.8680 0.8630 0.8590 0.8570
5.751000 0.8520 0.8510 0.8470 0.8400 0.8370
5.785113 0.8370 0.8320 0.8280 0.8230 0.8150
5.819000 0.8090 0.8080 0.7990 0.7970 0.7890
5.853113 0.7870 0.7820 0.7770 0.7700 0.7610
5.887000 0.7510 0.7410 0.7310 0.7270 0.7270
5.921113 0.7190 0.7100 0.6980 0.6830 0.6710
5.955000 0.6590 0.6570 0.6480 0.6350 0.6250
5.989113 0.6190 0.6060 0.5800 0.5580 0.5470
6.023000 0.5410 0.5320 0.5220 0.5060 0.4650
6.057113 0.4450 0.4210 0.3950 0.3900 0.3780
6.092000 0.3640 0.3540 0.3400 0.3110 0.2910
6.126113 0.2730 0.2650 0.2530 0.2360 0.2170
6.160000 0.2050 0.1900 0.1810 0.1690 0.1600
6.194113 0.1500 0.1380 0.1330 0.1280 0.1230
6.228000 0.1190 0.1190 0.1190 0.1190 0.1260
6.262113 0.1300 0.1350 0.1450 0.1520 0.1570
6.296000 0.1690 0.1810 0.1910 0.2030 0.2140
6.330113 0.2290 0.2480 0.2600 0.2730 0.2940
6.364000 0.3060 0.3210 0.3330 0.3350 0.3560
6.398113 0.3810 0.3980 0.4190 0.4290 0.4380
6.433000 0.4570 0.4640 0.4740 0.4880 0.4940
6.467113 0.5010 0.5170 0.5340 0.5410 0.5490
6.501000 0.5630 0.5730 0.5780 0.5820 0.5870
6.535113 0.5970 0.6020 0.6110 0.6190 0.6260
6.569000 0.6300 0.6360 0.6380 0.6400 0.6400
6.603113 0.6400 0.6420 0.6430 0.6450 0.6470
6.637000 0.6470 0.6470 0.6470 0.6450 0.6360
6.671113 0.6300 0.6280 0.6140 0.5890 0.5730
6.705000 0.5540 0.5340 0.5060 0.4520 0.4330
6.739113 0.4120 0.3950 0.3800 0.3710 0.3690
6.774000 0.3690 0.3690 0.3730 0.3780 0.3850
6.808113 0.3860 0.3900 0.3920 0.3800 0.3660
6.842000 0.3520 0.3390 0.3230 0.3200 0.3200
6.876113 0.3230 0.3350 0.3540 0.3710 0.3830
6.910000 0.3970 0.4050 0.4240 0.4450 0.4890
6.944113 0.5030 0.5170 0.5510 0.5820 0.6040
6.978000 0.6190 0.6300 0.6420 0.6520 0.6600
7.012113 0.6640 0.6660 0.6660 0.6660 0.6660
7.046000 0.6570 0.6500 0.6450 0.6360 0.6250
7.080113 0.6070 0.5970 0.5780 0.5540 0.5320
7.114000 0.5080 0.4400 0.4040 0.3660 0.3320
7.148113 0.3040 0.2820 0.2700 0.2550 0.2500
7.183000 0.2480 0.2500 0.2580 0.2630 0.2730
7.217113 0.2820 0.2960 0.3150 0.3280 0.3390
7.251000 0.3470 0.3490 0.3520 0.3590 0.3610
7.285113 0.3610 0.3610 0.3610 0.3610 0.3610
7.319000 0.3630 0.3660 0.3750 0.3810 0.3860
7.353113 0.3880 0.3880 0.3920 0.3970 0.3970
7.387000 0.4040 0.4170 0.4330 0.4500 0.4640
7.421113 0.4740 0.4890 0.4960 0.5030 0.5170
7.455000 0.5340 0.5460 0.5540 0.5610 0.5730
7.489113 0.5850 0.5900 0.5940 0.5990 0.6010
7.524000 0.6020 0.6040 0.6040 0.6020 0.5990
7.558113 0.5950 0.5870 0.5820 0.5780 0.5750
7.592000 0.5710 0.5660 0.5580 0.5560 0.5560
7.626113 0.5560 0.5560 0.5560 0.5560 0.5590
7.660000 0.5610 0.5630 0.5660 0.5700 0.5770
7.694113 0.5800 0.5870 0.5900 0.5970 0.6020
7.728000 0.6130 0.6210 0.6260 0.6280 0.6350
7.762113 0.6450 0.6470 0.6550 0.6550 0.6590
7.796000 0.6620 0.6670 0.6690 0.6710 0.6710
7.830113 0.6720 0.6760 0.6790 0.6840 0.6860
7.865000 0.6880 0.6900 0.6930 0.6960 0.6960
7.899113 0.6980 0.6980 0.7050 0.7050 0.7070
7.933000 0.7080 0.7080 0.7080 0.7080 0.7100
7.967113 0.7100 0.7100 0.7100 0.7100 0.7100
8.001000 0.7100 0.7100 0.7100 0.7100 0.7080
8.035113 0.7080 0.7080 0.7080 0.7100 0.7100
8.069000 0.7120 0.7140 0.7140 0.7150 0.7150
8.103113 0.7170 0.7190 0.7190 0.7200 0.7200
8.137000 0.7220 0.7240 0.7240 0.7240 0.7240
8.171113 0.7240 0.7260 0.7260 0.7260 0.7260
8.206000 0.7260 0.7260 0.7260 0.7260 0.7220
8.240113 0.7200 0.7190 0.7190 0.7170 0.7170
8.274000 0.7150 0.7150 0.7170 0.7190 0.7190
8.308113 0.7190 0.7150 0.7070 0.7050 0.7050
8.342000 0.7030 0.7020 0.7000 0.7000 0.6980
8.376113 0.6980 0.6980 0.6960 0.6960 0.6950
8.410000 0.6860 0.6860 0.6840 0.6790 0.6790
8.444113 0.6760 0.6760 0.6710 0.6690 0.6660
8.478000 0.6660 0.6590 0.6590 0.6570 0.6550
8.512113 0.6550 0.6540 0.6520 0.6500 0.6480
8.547000 0.6480 0.6470 0.6470 0.6450 0.6430
8.581113 0.6420 0.6400 0.6380 0.6360 0.6360
8.615000 0.6300 0.6280 0.6280 0.6260 0.6260
8.649113 0.6190 0.6180 0.6180 0.6160 0.6110
8.683000 0.6090 0.6070 0.6070 0.6070 0.6070
8.717113 0.6070 0.6040 0.6020 0.6010 0.5990
8.751000 0.5990 0.5970 0.5970 0.5970 0.5950
8.785113 0.5950 0.5940 0.5940 0.5920 0.5900
8.819000 0.5890 0.5870 0.5850 0.5850 0.5830
8.853113 0.5800 0.5800 0.5780 0.5770 0.5730
8.887000 0.5700 0.5680 0.5660 0.5610 0.5590
8.921113 0.5590 0.5580 0.5560 0.5490 0.5470
8.956000 0.5420 0.5390 0.5370 0.5300 0.5270
8.990113 0.5230 0.5150 0.5030 0.4910 0.4840
9.024000 0.4770 0.4690 0.4620 0.4530 0.4460
9.058113 0.4360 0.4260 0.4160 0.4070 0.3980
9.092000 0.3930 0.3830 0.3760 0.3680 0.3660
9.126113 0.3570 0.3510 0.3440 0.3390 0.3350
9.160000 0.3280 0.3230 0.3160 0.3090 0.3010
9.194113 0.2910 0.2790 0.2680 0.2550 0.2440
9.228000 0.2380 0.2240 0.2120 0.2020 0.1880
9.262113 0.1760 0.1720 0.1660 0.1640 0.1600
9.297000 0.1590 0.1590 0.1590 0.1590 0.1590
9.331113 0.1590 0.1600 0.1600 0.1620 0.1660
9.365000 0.1670 0.1690 0.1710 0.1720 0.1760
9.399113 0.1790 0.1860 0.1930 0.2020 0.2030
9.433000 0.2070 0.2100 0.2190 0.2260 0.2270
9.467113 0.2310 0.2380 0.2390 0.2460 0.2500
9.501000 0.2530 0.2580 0.2610 0.2670 0.2680
9.535113 0.2730 0.2790 0.2820 0.2870 0.2940
9.569000 0.2970 0.2990 0.3010 0.3030 0.3060
9.603113 0.3090 0.3130 0.3160 0.3160 0.3180
9.638000 0.3180 0.3200 0.3200 0.3270 0.3270
9.672113 0.3280 0.3320 0.3370 0.3370 0.3390
9.706000 0.3390 0.3420 0.3470 0.3470 0.3490
9.740113 0.3510 0.3510 0.3520 0.3540 0.3540
9.774000 0.3560 0.3570 0.3590 0.3590 0.3610
9.808113 0.3610 0.3610 0.3610 0.3610 0.3610
9.842000 0.3610 0.3610 0.3610 0.3590 0.3590
9.876113 0.3570 0.3570 0.3570 0.3560 0.3540
9.910000 0.3520 0.3510 0.3490 0.3470 0.3450
9.944113 0.3440 0.3420 0.3390 0.3370 0.3320
9.979000 0.3300 0.3280 0.3280 0.3270 0.3270
10.013113 0.3250 0.3250 0.3250 0.3230 0.3230
10.047000 0.3210 0.3210 0.3200 0.3180 0.3150
10.081113 0.3110 0.3090 0.3080 0.3060 0.3040
10.115000 0.3030 0.3010 0.3010 0.2990 0.2970
10.149113 0.2960 0.2910 0.2890 0.2840 0.2800
10.183000 0.2790 0.2750 0.2720 0.2670 0.2610
10.217113 0.2550 0.2550 0.2510 0.2500 0.2480
10.251000 0.2460 0.2390 0.2320 0.2310 0.2240
10.285113 0.2200 0.2190 0.2190 0.2120 0.2030
10.320000 0.1980 0.1960 0.1950 0.1930 0.1900
10.354113 0.1880 0.1810 0.1790 0.1720 0.1710
10.388000 0.1690 0.1640 0.1600 0.1570 0.1520
10.422113 0.1500 0.1500 0.1470 0.1420 0.1420
10.456000 0.1400 0.1360 0.1360 0.1310 0.1300
10.490113 0.1280 0.1260 0.1210 0.1210 0.1190
10.524000 0.1180 0.1160 0.1140 0.1140 0.1130
10.558113 0.1130 0.1130 0.1110 0.1110 0.1090
10.592000 0.1090 0.1070 0.1070 0.1060 0.1060
10.626113 0.1040 0.1040 0.1020 0.1020 0.1020
10.660000 0.1020 0.1020 0.1010 0.1010 0.1010
10.694113 0.1010 0.1010 0.1010 0.1010 0.0990
10.729000 0.0990 0.0990 0.0990 0.0990 0.0970
10.763113 0.0970 0.0970 0.0970 0.0970 0.0970
10.797000 0.0970 0.0950 0.0950 0.0940 0.0940
10.831113 0.0920 0.0920 0.0900 0.0890 0.0890
10.865000 0.0870 0.0850 0.0850 0.0800 0.0800
10.899113 0.0780 0.0780 0.0770 0.0770 0.0730
10.933000 0.0730 0.0710 0.0700 0.0700 0.0680
10.967113 0.0660 0.0650 0.0630 0.0630 0.0610
11.001000 0.0590 0.0590 0.0580 0.0560 0.0540
11.035113 0.0540 0.0540 0.0530 0.0530 0.0510
11.070000 0.0510 0.0490 0.0490 0.0470 0.0470
11.104113 0.0470 0.0460 0.0460 0.0460 0.0440
11.138000 0.0420 0.0420 0.0410 0.0410 0.0390
11.172113 0.0390 0.0390 0.0390 0.0390 0.0390
11.206000 0.0390 0.0370 0.0370 0.0370 0.0370
11.240113 0.0370 0.0370 0.0370 0.0350 0.0350
11.274000 0.0340 0.0340 0.0320 0.0320 0.0320
11.308113 0.0300 0.0300 0.0300 0.0300 0.0300
11.342000 0.0300 0.0290 0.0290 0.0290 0.0290
11.376113 0.0290 0.0290 0.0290 0.0290 0.0270
11.411000 0.0270 0.0270 0.0270 0.0270 0.0270
11.445113 0.0270 0.0250 0.0250 0.0250 0.0220
11.479000 0.0220 0.0220 0.0220 0.0220 0.0220
11.513113 0.0220 0.0220 0.0220 0.0230 0.0230
11.547000 0.0220 0.0220 0.0220 0.0220 0.0220
11.581113 0.0220 0.0220 0.0220 0.0220 0.0220
11.615000 0.0200 0.0200 0.0200 0.0200 0.0200
11.649113 0.0200 0.0200 0.0200 0.0200 0.0200
11.683000 0.0200 0.0200 0.0200 0.0200 0.0200
11.717113 0.0200 0.0200 0.0200 0.0200 0.0200
11.752000 0.0200 0.0200 0.0200 0.0200 0.0200
11.786113 0.0200 0.0200 0.0200 0.0180 0.0180
11.820000 0.0180 0.0180 0.0180 0.0180 0.0180
11.854113 0.0180 0.0180 0.0180 0.0170 0.0180
11.888000 0.0180 0.0180 0.0180 0.0180 0.0180
11.922113 0.0180 0.0180 0.0180 0.0180 0.0180
11.956000 0.0180 0.0170 0.0170 0.0180 0.0170
11.990113 0.0170 0.0170 0.0170 0.0170 0.0170
12.024000 0.0170 0.0170 0.0170 0.0170 0.0170
12.058113 0.0170 0.0180 0.0180 0.0180 0.0200
12.093000 0.0200 0.0200 0.0200 0.0200 0.0200
12.127113 0.0200 0.0200 0.0200 0.0200 0.0200
12.161000 0.0200 0.0220 0.0220 0.0220 0.0220
12.195113 0.0220 0.0220 0.0220 0.0220 0.0220
12.229000 0.0220 0.0220 0.0220 0.0230 0.0230
12.263113 0.0250 0.0250 0.0250 0.0270 0.0270
12.297000 0.0270 0.0270 0.0270 0.0290 0.0300
12.331113 0.0300 0.0300 0.0300 0.0300 0.0300
12.365000 0.0300 0.0300 0.0300 0.0300 0.0320
12.399113 0.0320 0.0320 0.0320 0.0340 0.0340
12.434000 0.0340 0.0340 0.0340 0.0350 0.0370
12.468113 0.0370 0.0390 0.0410 0.0420 0.0420
12.502000 0.0420 0.0420 0.0440 0.0440 0.0460
12.536113 0.0460 0.0470 0.0470 0.0490 0.0490
12.570000 0.0490 0.0510 0.0510 0.0530 0.0560
12.604113 0.0580 0.0590 0.0610 0.0610 0.0610
12.638000 0.0630 0.0630 0.0680 0.0700 0.0710
12.672113 0.0730 0.0770 0.0780 0.0800 0.0820
12.706000 0.0830 0.0850 0.0870 0.0890 0.0900
12.740113 0.0920 0.0950 0.0990 0.1010 0.1020
12.774000 0.1040 0.1070 0.1090 0.1110 0.1140
12.808113 0.1180 0.1190 0.1210 0.1230 0.1250
12.843000 0.1260 0.1300 0.1310 0.1350 0.1380
12.877113 0.1400 0.1450 0.1480 0.1520 0.1550
12.911000 0.1600 0.1620 0.1640 0.1660 0.1670
12.945113 0.1690 0.1780 0.1810 0.1830 0.1840
12.979000 0.1860 0.1880 0.1930 0.1960 0.2020
13.013113 0.2050 0.2080 0.2100 0.2120 0.2140
13.047000 0.2150 0.2190 0.2220 0.2240 0.2290
13.081113 0.2310 0.2320 0.2320 0.2340 0.2360
13.115000 0.2380 0.2380 0.2390 0.2410 0.2430
13.149113 0.2440 0.2460 0.2460 0.2480 0.2500
13.184000 0.2500 0.2510 0.2530 0.2510 0.2530
13.218113 0.2550 0.2550 0.2550 0.2550 0.2550
13.252000 0.2550 0.2550 0.2530 0.2530 0.2530
13.286113 0.2510 0.2510 0.2500 0.2500 0.2480
13.320000 0.2480 0.2480 0.2480 0.2480 0.2480
13.354113 0.2480 0.2480 0.2480 0.2460 0.2460
13.388000 0.2460 0.2460 0.2460 0.2440 0.2440
13.422113 0.2440 0.2440 0.2440 0.2440 0.2440
13.456000 0.2440 0.2440 0.2440 0.2440 0.2460
13.490113 0.2460 0.2500 0.2530 0.2560 0.2580
13.525000 0.2600 0.2610 0.2670 0.2670 0.2750
13.559113 0.2770 0.2800 0.2870 0.2910 0.2920
13.593000 0.2960 0.3030 0.3110 0.3200 0.3270
13.627113 0.3280 0.3300 0.3330 0.3370 0.3440
13.661000 0.3510 0.3560 0.3570 0.3610 0.3680
13.695113 0.3710 0.3760 0.3780 0.3800 0.3860
13.729000 0.3860 0.3900 0.3970 0.3980 0.4000
13.763113 0.4020 0.4050 0.4070 0.4100 0.4140
13.797000 0.4210 0.4240 0.4260 0.4260 0.4290
13.831113 0.4310 0.4360 0.4380 0.4410 0.4460
13.866000 0.4460 0.4480 0.4480 0.4500 0.4520
13.900113 0.4520 0.4530 0.4530 0.4550 0.4550
13.934000 0.4580 0.4600 0.4600 0.4620 0.4670
13.968113 0.4670 0.4690 0.4700 0.4760 0.4760
14.002000 0.4770 0.4770 0.4770 0.4790 0.4810
14.036113 0.4810 0.4820 0.4840 0.4860 0.4880
14.070000 0.4890 0.4910 0.4930 0.4940 0.4940
14.104113 0.4960 0.4980 0.5000 0.5000 0.5000
14.138000 0.5000 0.5010 0.5010 0.5010 0.5030
14.172113 0.5030 0.5050 0.5050 0.5060 0.5080
14.207000 0.5100 0.5110 0.5130 0.5150 0.5150
14.241113 0.5170 0.5170 0.5170 0.5170 0.5180
14.275000 0.5200 0.5200 0.5230 0.5230 0.5230
14.309113 0.5230 0.5230 0.5250 0.5270 0.5270
14.343000 0.5290 0.5290 0.5300 0.5300 0.5300
14.377113 0.5300 0.5320 0.5320 0.5350 0.5370
14.411000 0.5370 0.5370 0.5370 0.5390 0.5390
14.445113 0.5410 0.5420 0.5420 0.5440 0.5440
14.479000 0.5470 0.5470 0.5470 0.5470 0.5470
14.513113 0.5470 0.5490 0.5490 0.5510 0.5510
14.547000 0.5510 0.5510 0.5530 0.5530 0.5530
14.581113 0.5530 0.5540 0.5540 0.5540 0.5530
14.616000 0.5530 0.5530 0.5530 0.5530 0.5540
14.650113 0.5560 0.5580 0.5580 0.5580 0.5580
14.684000 0.5580 0.5580 0.5580 0.5580 0.5590
14.718113 0.5590 0.5610 0.5610 0.5610 0.5630
14.752000 0.5630 0.5630 0.5650 0.5650 0.5650
14.786113 0.5660 0.5660 0.5660 0.5650 0.5650
14.820000 0.5630 0.5630 0.5630 0.5630 0.5630
14.854113 0.5650 0.5650 0.5650 0.5660 0.5660
14.888000 0.5680 0.5680 0.5680 0.5700 0.5700
14.922113 0.5710 0.5730 0.5750 0.5750 0.5750
14.957000 0.5770 0.5770 0.5780 0.5780 0.5780
14.991113 0.5770 0.5770 0.5750 0.5710 0.5700
15.025000 0.5700 0.5700 0.5680 0.5660 0.5660
15.059113 0.5660 0.5660 0.5660 0.5660 0.5650
15.093000 0.5650 0.5650 0.5650 0.5660 0.5680
15.127113 0.5680 0.5700 0.5700 0.5700 0.5710
15.161000 0.5710 0.5710 0.5710 0.5710 0.5710
15.195113 0.5710 0.5710 0.5710 0.5710 0.5710
15.229000 0.5700 0.5700 0.5700 0.5700 0.5700
15.263113 0.5700 0.5700 0.5700 0.5700 0.5700
15.298000 0.5700 0.5700 0.5700 0.5710 0.5710
15.332113 0.5710 0.5730 0.5770 0.5770 0.5770
15.366000 0.5770 0.5770 0.5770 0.5750 0.5750
15.400113 0.5730 0.5730 0.5730 0.5730 0.5730
15.434000 0.5730 0.5730 0.5730 0.5730 0.5730
15.468113 0.5730 0.5730 0.5770 0.5770 0.5770
15.502000 0.5770 0.5770 0.5770 0.5770 0.5770
15.536113 0.5770 0.5770 0.5770 0.5750 0.5750
15.570000 0.5750 0.5750 0.5770 0.5770 0.5780
15.604113 0.5780 0.5780 0.5780 0.5780 0.5780
15.639000 0.5780 0.5780 0.5780 0.5780 0.5780
15.673113 0.5780 0.5780 0.5780 0.5780 0.5780
15.707000 0.5780 0.5780 0.5780 0.5780 0.5780
15.741113 0.5780 0.5780 0.5780 0.5780 0.5780
15.775000 0.5780 0.5780 0.5780 0.5800 0.5800
15.809113 0.5800 0.5800 0.5800 0.5800 0.5800
15.843000 0.5800 0.5800 0.5800 0.5800 0.5800
15.877113 0.5800 0.5820 0.5820 0.5820 0.5830
15.911000 0.5830 0.5850 0.5870 0.5870 0.5870
15.945113 0.5870 0.5870 0.5870 0.5890 0.5890
15.980000 0.5890 0.5890
##END=
