##TITLE=Ethylene, tetrachloro-
##JCAMP-DX=4.24
##DATA TYPE=INFRARED SPECTRUM
##CLASS=COBLENTZ
##ORIGIN=DOW CHEMICAL COMPANY
##OWNER=Copyright (C) 1987 by the Coblentz Society
Collection (C) 2018 copyright by the U.S. Secretary of Commerce
on behalf of the United States of America. All rights reserved.
##DATE=1964
##NAMES=1,1,2,2-tetrachloroethylene
TETRACHLORO ETHENE
##CAS REGISTRY NO=127-18-4
##MOLFORM=C2 Cl4
##SOURCE REFERENCE=COBLENTZ NO. 8847
##$NIST SOURCE=COBLENTZ
##$NIST IMAGE=cob8847
##SPECTROMETER/DATA SYSTEM=DOW KBr FOREPRISM-GRATING
##INSTRUMENT PARAMETERS=GRATING CHANGED AT 5.0, 7.5, 15.0 MICRON
##STATE=GAS (13 mmHg, N2 ADDED, TOTAL PRESSURE 600 mmHg)
##PATH LENGTH=5 CM
##SAMPLING PROCEDURE=TRANSMISSION
##RESOLUTION=2
##DATA PROCESSING=DIGITIZED BY COBLENTZ SOCIETY (BATCH II) FROM HARD COPY
##XUNITS=1/CM
##YUNITS=TRANSMITTANCE
##XFACTOR=1.0
##YFACTOR=1
##FIRSTX=455
##LASTX=3794
##FIRSTY=0.8259
##MAXX=3794
##MINX=455
##MAXY=0.9081
##MINY=0.0612
##NPOINTS=3340
##XYDATA=(X++(Y..Y))
455.000000 0.8259 0.8259 0.8259 0.8259 0.8259
460.000000 0.8259 0.8259 0.8258 0.8257 0.8257
465.000000 0.8256 0.8255 0.8255 0.8253 0.8251
470.000000 0.8250 0.8248 0.8246 0.8244 0.8242
475.000000 0.8240 0.8239 0.8240 0.8242 0.8245
480.000000 0.8247 0.8250 0.8253 0.8255 0.8265
485.000000 0.8278 0.8292 0.8307 0.8330 0.8353
490.000000 0.8376 0.8397 0.8417 0.8436 0.8456
495.000000 0.8475 0.8478 0.8481 0.8483 0.8486
500.000000 0.8487 0.8488 0.8488 0.8488 0.8489
505.000000 0.8489 0.8490 0.8491 0.8492 0.8492
510.000000 0.8493 0.8494 0.8495 0.8495 0.8496
515.000000 0.8497 0.8499 0.8501 0.8503 0.8505
520.000000 0.8506 0.8508 0.8510 0.8511 0.8511
525.000000 0.8510 0.8510 0.8509 0.8509 0.8509
530.000000 0.8508 0.8508 0.8507 0.8507 0.8507
535.000000 0.8506 0.8506 0.8507 0.8508 0.8508
540.000000 0.8509 0.8510 0.8511 0.8512 0.8512
545.000000 0.8513 0.8514 0.8515 0.8516 0.8520
550.000000 0.8528 0.8535 0.8542 0.8549 0.8556
555.000000 0.8563 0.8571 0.8578 0.8584 0.8589
560.000000 0.8595 0.8600 0.8606 0.8611 0.8616
565.000000 0.8622 0.8626 0.8626 0.8626 0.8626
570.000000 0.8626 0.8626 0.8626 0.8626 0.8625
575.000000 0.8625 0.8625 0.8625 0.8625 0.8625
580.000000 0.8625 0.8626 0.8626 0.8626 0.8626
585.000000 0.8627 0.8627 0.8627 0.8627 0.8628
590.000000 0.8629 0.8630 0.8632 0.8633 0.8635
595.000000 0.8636 0.8638 0.8639 0.8641 0.8642
600.000000 0.8644 0.8645 0.8647 0.8648 0.8650
605.000000 0.8651 0.8653 0.8653 0.8653 0.8653
610.000000 0.8653 0.8653 0.8654 0.8654 0.8654
615.000000 0.8654 0.8654 0.8654 0.8654 0.8654
620.000000 0.8654 0.8655 0.8655 0.8655 0.8655
625.000000 0.8670 0.8655 0.8655 0.8655 0.8656
630.000000 0.8656 0.8656 0.8656 0.8656 0.8656
635.000000 0.8656 0.8657 0.8657 0.8657 0.8657
640.000000 0.8657 0.8657 0.8658 0.8658 0.8658
645.000000 0.8659 0.8659 0.8659 0.8660 0.8660
650.000000 0.8660 0.8661 0.8661 0.8661 0.8662
655.000000 0.8662 0.8662 0.8663 0.8664 0.8665
660.000000 0.8667 0.8669 0.8670 0.8672 0.8674
665.000000 0.8676 0.8677 0.8679 0.8681 0.8696
670.000000 0.8728 0.8768 0.8811 0.8855 0.8868
675.000000 0.8881 0.8879 0.8877 0.8874 0.8869
680.000000 0.8865 0.8861 0.8857 0.8852 0.8848
685.000000 0.8844 0.8840 0.8835 0.8831 0.8827
690.000000 0.8823 0.8818 0.8814 0.8810 0.8805
695.000000 0.8801 0.8797 0.8793 0.8789 0.8784
700.000000 0.8780 0.8776 0.8772 0.8768 0.8764
705.000000 0.8759 0.8755 0.8750 0.8746 0.8741
710.000000 0.8737 0.8724 0.8702 0.8680 0.8657
715.000000 0.8633 0.8609 0.8584 0.8560 0.8537
720.000000 0.8515 0.8492 0.8470 0.8447 0.8424
725.000000 0.8402 0.8383 0.8366 0.8348 0.8331
730.000000 0.8314 0.8304 0.8295 0.8285 0.8275
735.000000 0.8265 0.8256 0.8248 0.8241 0.8235
740.000000 0.8228 0.8221 0.8208 0.8178 0.8147
745.000000 0.8117 0.8080 0.8032 0.7985 0.7952
750.000000 0.7919 0.7886 0.7859 0.7835 0.7826
755.000000 0.7822 0.7817 0.7822 0.7828 0.7851
760.000000 0.7885 0.7922 0.7959 0.7969 0.7965
765.000000 0.7956 0.7946 0.7892 0.7839 0.7776
770.000000 0.7698 0.7455 0.6993 0.6530 0.6068
775.000000 0.5605 0.5143 0.4732 0.4455 0.4369
780.000000 0.4329 0.4317 0.4309 0.4346 0.4338
785.000000 0.4542 0.4610 0.4828 0.5117 0.5598
790.000000 0.6079 0.6561 0.7042 0.7312 0.7314
795.000000 0.7293 0.7228 0.6839 0.6606 0.6562
800.000000 0.6520 0.6481 0.6326 0.6214 0.6215
805.000000 0.6266 0.6295 0.6329 0.6365 0.6412
810.000000 0.6527 0.6661 0.7039 0.7529 0.8019
815.000000 0.8203 0.8381 0.8495 0.8597 0.8671
820.000000 0.8717 0.8738 0.8755 0.8763 0.8769
825.000000 0.8771 0.8773 0.8775 0.8779 0.8783
830.000000 0.8788 0.8793 0.8798 0.8815 0.8836
835.000000 0.8855 0.8874 0.8893 0.8903 0.8908
840.000000 0.8911 0.8914 0.8916 0.8918 0.8921
845.000000 0.8923 0.8925 0.8926 0.8927 0.8928
850.000000 0.8929 0.8930 0.8931 0.8932 0.8933
855.000000 0.8934 0.8935 0.8934 0.8932 0.8930
860.000000 0.8928 0.8927 0.8925 0.8923 0.8921
865.000000 0.8919 0.8918 0.8916 0.8914 0.8913
870.000000 0.8912 0.8911 0.8910 0.8909 0.8908
875.000000 0.8906 0.8905 0.8904 0.8903 0.8902
880.000000 0.8899 0.8895 0.8890 0.8880 0.8868
885.000000 0.8845 0.8815 0.8774 0.8713 0.8649
890.000000 0.8580 0.8511 0.8415 0.8319 0.8222
895.000000 0.8126 0.8025 0.7922 0.7794 0.7625
900.000000 0.7459 0.7144 0.6539 0.5935 0.5331
905.000000 0.4726 0.4122 0.3518 0.2913 0.2309
910.000000 0.1705 0.0832 0.0733 0.0653 0.0622
915.000000 0.0612 0.0625 0.0638 0.0652 0.0667
920.000000 0.0684 0.0706 0.0739 0.0800 0.1668
925.000000 0.2634 0.3601 0.4567 0.5533 0.6500
930.000000 0.7466 0.8432 0.8672 0.8773 0.8864
935.000000 0.8908 0.8944 0.8964 0.8981 0.8994
940.000000 0.9003 0.9013 0.9022 0.9028 0.9034
945.000000 0.9036 0.9038 0.9040 0.9042 0.9044
950.000000 0.9044 0.9043 0.9042 0.9041 0.9040
955.000000 0.9039 0.9038 0.9037 0.9036 0.9036
960.000000 0.9035 0.9034 0.9033 0.9032 0.9032
965.000000 0.9032 0.9032 0.9033 0.9033 0.9033
970.000000 0.9033 0.9034 0.9034 0.9034 0.9035
975.000000 0.9036 0.9037 0.9038 0.9039 0.9040
980.000000 0.9041 0.9041 0.9041 0.9041 0.9041
985.000000 0.9041 0.9042 0.9042 0.9042 0.9042
990.000000 0.9042 0.9042 0.9042 0.9042 0.9042
995.000000 0.9043 0.9043 0.9043 0.9043 0.9043
1000.000000 0.9043 0.9043 0.9044 0.9044 0.9044
1005.000000 0.9044 0.9044 0.9045 0.9045 0.9045
1010.000000 0.9045 0.9045 0.9046 0.9047 0.9048
1015.000000 0.9049 0.9048 0.9047 0.9046 0.9045
1020.000000 0.9045 0.9044 0.9043 0.9042 0.9041
1025.000000 0.9040 0.9039 0.9038 0.9037 0.9036
1030.000000 0.9034 0.9032 0.9030 0.9028 0.9026
1035.000000 0.9024 0.9023 0.9021 0.9019 0.9017
1040.000000 0.9015 0.9013 0.9011 0.9009 0.9006
1045.000000 0.9003 0.8999 0.8995 0.8991 0.8988
1050.000000 0.8984 0.8980 0.8977 0.8973 0.8969
1055.000000 0.8965 0.8962 0.8958 0.8954 0.8951
1060.000000 0.8947 0.8943 0.8939 0.8933 0.8927
1065.000000 0.8921 0.8915 0.8906 0.8897 0.8888
1070.000000 0.8880 0.8869 0.8858 0.8847 0.8836
1075.000000 0.8825 0.8813 0.8802 0.8799 0.8803
1080.000000 0.8809 0.8814 0.8817 0.8819 0.8822
1085.000000 0.8825 0.8827 0.8828 0.8825 0.8822
1090.000000 0.8819 0.8817 0.8808 0.8799 0.8790
1095.000000 0.8779 0.8768 0.8761 0.8754 0.8750
1100.000000 0.8752 0.8757 0.8761 0.8767 0.8778
1105.000000 0.8789 0.8800 0.8806 0.8811 0.8817
1110.000000 0.8822 0.8823 0.8824 0.8825 0.8826
1115.000000 0.8826 0.8827 0.8830 0.8832 0.8835
1120.000000 0.8837 0.8839 0.8839 0.8837 0.8835
1125.000000 0.8832 0.8831 0.8830 0.8829 0.8828
1130.000000 0.8832 0.8842 0.8851 0.8861 0.8870
1135.000000 0.8877 0.8880 0.8876 0.8873 0.8873
1140.000000 0.8873 0.8873 0.8873 0.8873 0.8873
1145.000000 0.8873 0.8876 0.8880 0.8884 0.8887
1150.000000 0.8891 0.8895 0.8898 0.8902 0.8906
1155.000000 0.8909 0.8913 0.8919 0.8926 0.8933
1160.000000 0.8941 0.8948 0.8961 0.8974 0.8984
1165.000000 0.8995 0.9000 0.9004 0.9004 0.9000
1170.000000 0.8997 0.8993 0.8990 0.8986 0.8983
1175.000000 0.8979 0.8975 0.8973 0.8972 0.8970
1180.000000 0.8969 0.8967 0.8966 0.8966 0.8970
1185.000000 0.8979 0.8997 0.9013 0.9029 0.9038
1190.000000 0.9043 0.9048 0.9051 0.9052 0.9054
1195.000000 0.9056 0.9056 0.9055 0.9053 0.9052
1200.000000 0.9052 0.9052 0.9052 0.9052 0.9052
1205.000000 0.9052 0.9051 0.9051 0.9050 0.9050
1210.000000 0.9049 0.9049 0.9048 0.9048 0.9047
1215.000000 0.9047 0.9048 0.9050 0.9051 0.9053
1220.000000 0.9054 0.9056 0.9057 0.9059 0.9060
1225.000000 0.9062 0.9063 0.9066 0.9071 0.9076
1230.000000 0.9081 0.9081 0.9074 0.9065 0.9056
1235.000000 0.9047 0.9038 0.9030 0.9022 0.9013
1240.000000 0.9005 0.8997 0.8988 0.8979 0.8969
1245.000000 0.8960 0.8951 0.8941 0.8932 0.8923
1250.000000 0.8913 0.8905 0.8900 0.8895 0.8889
1255.000000 0.8884 0.8879 0.8875 0.8873 0.8872
1260.000000 0.8872 0.8872 0.8872 0.8872 0.8872
1265.000000 0.8872 0.8873 0.8873 0.8873 0.8873
1270.000000 0.8873 0.8873 0.8873 0.8873 0.8873
1275.000000 0.8874 0.8874 0.8874 0.8873 0.8872
1280.000000 0.8871 0.8871 0.8870 0.8869 0.8868
1285.000000 0.8868 0.8867 0.8866 0.8865 0.8865
1290.000000 0.8864 0.8863 0.8863 0.8862 0.8861
1295.000000 0.8860 0.8860 0.8859 0.8858 0.8858
1300.000000 0.8857 0.8856 0.8855 0.8855 0.8854
1305.000000 0.8853 0.8853 0.8852 0.8851 0.8851
1310.000000 0.8851 0.8851 0.8851 0.8850 0.8850
1315.000000 0.8851 0.8852 0.8853 0.8855 0.8856
1320.000000 0.8857 0.8858 0.8859 0.8861 0.8863
1325.000000 0.8866 0.8868 0.8871 0.8874 0.8877
1330.000000 0.8879 0.8879 0.8879 0.8878 0.8878
1335.000000 0.8877 0.8877 0.8877 0.8876 0.8876
1340.000000 0.8875 0.8875 0.8875 0.8874 0.8875
1345.000000 0.8876 0.8876 0.8877 0.8878 0.8878
1350.000000 0.8879 0.8880 0.8880 0.8881 0.8880
1355.000000 0.8879 0.8878 0.8877 0.8875 0.8872
1360.000000 0.8870 0.8868 0.8859 0.8849 0.8840
1365.000000 0.8831 0.8819 0.8808 0.8797 0.8785
1370.000000 0.8774 0.8762 0.8754 0.8746 0.8739
1375.000000 0.8731 0.8725 0.8721 0.8717 0.8713
1380.000000 0.8709 0.8706 0.8703 0.8700 0.8697
1385.000000 0.8694 0.8691 0.8688 0.8685 0.8684
1390.000000 0.8685 0.8686 0.8687 0.8689 0.8690
1395.000000 0.8691 0.8692 0.8693 0.8695 0.8696
1400.000000 0.8697 0.8698 0.8700 0.8701 0.8703
1405.000000 0.8704 0.8706 0.8708 0.8709 0.8711
1410.000000 0.8714 0.8718 0.8723 0.8727 0.8731
1415.000000 0.8736 0.8740 0.8744 0.8748 0.8752
1420.000000 0.8756 0.8759 0.8762 0.8764 0.8767
1425.000000 0.8770 0.8772 0.8775 0.8777 0.8780
1430.000000 0.8782 0.8784 0.8787 0.8789 0.8791
1435.000000 0.8794 0.8796 0.8798 0.8801 0.8802
1440.000000 0.8804 0.8805 0.8807 0.8808 0.8810
1445.000000 0.8811 0.8812 0.8814 0.8815 0.8817
1450.000000 0.8818 0.8819 0.8821 0.8822 0.8824
1455.000000 0.8828 0.8831 0.8835 0.8838 0.8842
1460.000000 0.8842 0.8842 0.8839 0.8829 0.8822
1465.000000 0.8822 0.8822 0.8822 0.8824 0.8827
1470.000000 0.8833 0.8839 0.8844 0.8846 0.8839
1475.000000 0.8832 0.8824 0.8817 0.8810 0.8803
1480.000000 0.8798 0.8793 0.8788 0.8783 0.8777
1485.000000 0.8774 0.8776 0.8778 0.8780 0.8782
1490.000000 0.8784 0.8785 0.8787 0.8789 0.8792
1495.000000 0.8795 0.8798 0.8801 0.8803 0.8806
1500.000000 0.8812 0.8821 0.8829 0.8837 0.8845
1505.000000 0.8860 0.8879 0.8898 0.8888 0.8868
1510.000000 0.8850 0.8832 0.8814 0.8796 0.8791
1515.000000 0.8796 0.8809 0.8822 0.8835 0.8848
1520.000000 0.8861 0.8874 0.8887 0.8899 0.8912
1525.000000 0.8918 0.8913 0.8907 0.8902 0.8897
1530.000000 0.8891 0.8886 0.8880 0.8875 0.8869
1535.000000 0.8865 0.8863 0.8861 0.8859 0.8857
1540.000000 0.8855 0.8853 0.8856 0.8859 0.8856
1545.000000 0.8849 0.8842 0.8837 0.8833 0.8828
1550.000000 0.8824 0.8822 0.8827 0.8835 0.8843
1555.000000 0.8858 0.8875 0.8891 0.8905 0.8920
1560.000000 0.8926 0.8908 0.8879 0.8847 0.8826
1565.000000 0.8824 0.8826 0.8830 0.8835 0.8839
1570.000000 0.8845 0.8849 0.8848 0.8846 0.8844
1575.000000 0.8842 0.8838 0.8833 0.8828 0.8822
1580.000000 0.8817 0.8811 0.8804 0.8795 0.8789
1585.000000 0.8787 0.8784 0.8782 0.8780 0.8777
1590.000000 0.8775 0.8773 0.8770 0.8768 0.8766
1595.000000 0.8763 0.8762 0.8762 0.8761 0.8761
1600.000000 0.8761 0.8761 0.8761 0.8761 0.8761
1605.000000 0.8761 0.8761 0.8763 0.8769 0.8775
1610.000000 0.8781 0.8787 0.8793 0.8799 0.8805
1615.000000 0.8814 0.8822 0.8830 0.8829 0.8821
1620.000000 0.8809 0.8797 0.8784 0.8772 0.8763
1625.000000 0.8754 0.8745 0.8736 0.8729 0.8723
1630.000000 0.8717 0.8711 0.8706 0.8702 0.8698
1635.000000 0.8694 0.8690 0.8686 0.8682 0.8676
1640.000000 0.8667 0.8659 0.8650 0.8644 0.8639
1645.000000 0.8634 0.8629 0.8623 0.8622 0.8626
1650.000000 0.8629 0.8632 0.8636 0.8639 0.8642
1655.000000 0.8646 0.8650 0.8655 0.8661 0.8666
1660.000000 0.8671 0.8677 0.8682 0.8689 0.8696
1665.000000 0.8703 0.8710 0.8717 0.8725 0.8732
1670.000000 0.8739 0.8746 0.8753 0.8760 0.8768
1675.000000 0.8777 0.8786 0.8788 0.8788 0.8787
1680.000000 0.8796 0.8817 0.8838 0.8849 0.8858
1685.000000 0.8860 0.8848 0.8835 0.8826 0.8818
1690.000000 0.8810 0.8802 0.8793 0.8785 0.8779
1695.000000 0.8775 0.8770 0.8766 0.8761 0.8752
1700.000000 0.8732 0.8713 0.8690 0.8665 0.8640
1705.000000 0.8623 0.8608 0.8593 0.8579 0.8564
1710.000000 0.8549 0.8539 0.8530 0.8522 0.8542
1715.000000 0.8570 0.8603 0.8636 0.8661 0.8662
1720.000000 0.8626 0.8582 0.8545 0.8533 0.8520
1725.000000 0.8518 0.8521 0.8524 0.8531 0.8549
1730.000000 0.8567 0.8589 0.8618 0.8648 0.8676
1735.000000 0.8702 0.8728 0.8748 0.8755 0.8756
1740.000000 0.8758 0.8759 0.8761 0.8762 0.8762
1745.000000 0.8763 0.8763 0.8764 0.8764 0.8766
1750.000000 0.8768 0.8771 0.8773 0.8775 0.8778
1755.000000 0.8780 0.8782 0.8782 0.8780 0.8779
1760.000000 0.8779 0.8778 0.8778 0.8778 0.8778
1765.000000 0.8778 0.8778 0.8778 0.8778 0.8778
1770.000000 0.8778 0.8777 0.8777 0.8776 0.8776
1775.000000 0.8775 0.8775 0.8774 0.8774 0.8773
1780.000000 0.8773 0.8772 0.8772 0.8771 0.8770
1785.000000 0.8770 0.8769 0.8769 0.8768 0.8768
1790.000000 0.8767 0.8767 0.8767 0.8766 0.8766
1795.000000 0.8766 0.8765 0.8765 0.8765 0.8764
1800.000000 0.8764 0.8763 0.8763 0.8763 0.8762
1805.000000 0.8762 0.8761 0.8760 0.8759 0.8759
1810.000000 0.8758 0.8757 0.8756 0.8756 0.8755
1815.000000 0.8754 0.8753 0.8752 0.8752 0.8751
1820.000000 0.8750 0.8749 0.8748 0.8748 0.8747
1825.000000 0.8746 0.8745 0.8744 0.8743 0.8742
1830.000000 0.8741 0.8741 0.8740 0.8739 0.8738
1835.000000 0.8737 0.8736 0.8735 0.8734 0.8733
1840.000000 0.8732 0.8731 0.8729 0.8728 0.8727
1845.000000 0.8726 0.8725 0.8724 0.8722 0.8721
1850.000000 0.8720 0.8719 0.8718 0.8717 0.8715
1855.000000 0.8714 0.8714 0.8715 0.8715 0.8715
1860.000000 0.8715 0.8715 0.8716 0.8716 0.8716
1865.000000 0.8716 0.8717 0.8717 0.8717 0.8717
1870.000000 0.8717 0.8718 0.8718 0.8718 0.8718
1875.000000 0.8719 0.8719 0.8719 0.8719 0.8719
1880.000000 0.8719 0.8720 0.8720 0.8720 0.8720
1885.000000 0.8720 0.8720 0.8720 0.8720 0.8720
1890.000000 0.8721 0.8721 0.8721 0.8721 0.8721
1895.000000 0.8721 0.8721 0.8722 0.8723 0.8723
1900.000000 0.8724 0.8725 0.8726 0.8726 0.8727
1905.000000 0.8728 0.8728 0.8729 0.8730 0.8730
1910.000000 0.8731 0.8732 0.8733 0.8733 0.8734
1915.000000 0.8735 0.8735 0.8736 0.8737 0.8738
1920.000000 0.8738 0.8737 0.8736 0.8735 0.8734
1925.000000 0.8733 0.8733 0.8732 0.8731 0.8730
1930.000000 0.8729 0.8728 0.8728 0.8727 0.8726
1935.000000 0.8725 0.8724 0.8723 0.8722 0.8722
1940.000000 0.8721 0.8720 0.8719 0.8718 0.8717
1945.000000 0.8716 0.8716 0.8715 0.8715 0.8715
1950.000000 0.8715 0.8714 0.8714 0.8714 0.8713
1955.000000 0.8713 0.8713 0.8712 0.8712 0.8712
1960.000000 0.8712 0.8711 0.8711 0.8711 0.8710
1965.000000 0.8710 0.8710 0.8710 0.8710 0.8711
1970.000000 0.8711 0.8711 0.8711 0.8711 0.8712
1975.000000 0.8712 0.8712 0.8712 0.8713 0.8713
1980.000000 0.8713 0.8713 0.8714 0.8714 0.8714
1985.000000 0.8714 0.8714 0.8715 0.8715 0.8715
1990.000000 0.8716 0.8717 0.8718 0.8719 0.8720
1995.000000 0.8720 0.8721 0.8722 0.8723 0.8724
2000.000000 0.8725 0.8725 0.8726 0.8726 0.8727
2005.000000 0.8727 0.8728 0.8728 0.8729 0.8729
2010.000000 0.8730 0.8730 0.8731 0.8731 0.8732
2015.000000 0.8732 0.8733 0.8733 0.8734 0.8735
2020.000000 0.8736 0.8736 0.8737 0.8738 0.8739
2025.000000 0.8739 0.8740 0.8741 0.8742 0.8742
2030.000000 0.8743 0.8744 0.8745 0.8745 0.8746
2035.000000 0.8748 0.8750 0.8751 0.8753 0.8754
2040.000000 0.8755 0.8755 0.8756 0.8756 0.8757
2045.000000 0.8757 0.8757 0.8757 0.8758 0.8758
2050.000000 0.8759 0.8759 0.8760 0.8760 0.8761
2055.000000 0.8761 0.8762 0.8762 0.8763 0.8763
2060.000000 0.8763 0.8763 0.8764 0.8764 0.8765
2065.000000 0.8765 0.8766 0.8766 0.8767 0.8767
2070.000000 0.8768 0.8768 0.8769 0.8769 0.8769
2075.000000 0.8769 0.8770 0.8770 0.8771 0.8771
2080.000000 0.8772 0.8772 0.8773 0.8773 0.8774
2085.000000 0.8774 0.8775 0.8775 0.8776 0.8776
2090.000000 0.8776 0.8776 0.8777 0.8777 0.8778
2095.000000 0.8778 0.8778 0.8778 0.8778 0.8778
2100.000000 0.8778 0.8778 0.8778 0.8778 0.8778
2105.000000 0.8778 0.8778 0.8777 0.8777 0.8777
2110.000000 0.8777 0.8777 0.8777 0.8777 0.8777
2115.000000 0.8777 0.8777 0.8776 0.8776 0.8776
2120.000000 0.8776 0.8775 0.8775 0.8775 0.8775
2125.000000 0.8775 0.8775 0.8774 0.8774 0.8774
2130.000000 0.8774 0.8774 0.8774 0.8773 0.8773
2135.000000 0.8773 0.8773 0.8772 0.8772 0.8772
2140.000000 0.8772 0.8772 0.8772 0.8771 0.8770
2145.000000 0.8769 0.8769 0.8768 0.8768 0.8767
2150.000000 0.8766 0.8765 0.8765 0.8764 0.8764
2155.000000 0.8763 0.8762 0.8761 0.8761 0.8760
2160.000000 0.8760 0.8759 0.8758 0.8757 0.8757
2165.000000 0.8756 0.8756 0.8755 0.8755 0.8755
2170.000000 0.8756 0.8756 0.8757 0.8757 0.8758
2175.000000 0.8758 0.8759 0.8759 0.8760 0.8760
2180.000000 0.8761 0.8761 0.8762 0.8762 0.8763
2185.000000 0.8764 0.8765 0.8766 0.8767 0.8768
2190.000000 0.8769 0.8769 0.8769 0.8769 0.8770
2195.000000 0.8770 0.8770 0.8770 0.8770 0.8770
2200.000000 0.8771 0.8771 0.8771 0.8771 0.8772
2205.000000 0.8772 0.8772 0.8772 0.8773 0.8774
2210.000000 0.8775 0.8775 0.8776 0.8777 0.8778
2215.000000 0.8778 0.8779 0.8780 0.8781 0.8782
2220.000000 0.8783 0.8783 0.8784 0.8785 0.8786
2225.000000 0.8786 0.8787 0.8788 0.8789 0.8790
2230.000000 0.8791 0.8791 0.8792 0.8793 0.8794
2235.000000 0.8795 0.8796 0.8796 0.8797 0.8797
2240.000000 0.8798 0.8798 0.8798 0.8798 0.8798
2245.000000 0.8798 0.8798 0.8798 0.8798 0.8798
2250.000000 0.8799 0.8799 0.8799 0.8799 0.8799
2255.000000 0.8799 0.8799 0.8799 0.8799 0.8799
2260.000000 0.8800 0.8800 0.8800 0.8800 0.8800
2265.000000 0.8800 0.8801 0.8801 0.8802 0.8802
2270.000000 0.8802 0.8802 0.8803 0.8803 0.8804
2275.000000 0.8804 0.8804 0.8804 0.8805 0.8805
2280.000000 0.8806 0.8806 0.8806 0.8806 0.8807
2285.000000 0.8807 0.8808 0.8808 0.8808 0.8808
2290.000000 0.8809 0.8809 0.8810 0.8811 0.8813
2295.000000 0.8815 0.8818 0.8820 0.8822 0.8824
2300.000000 0.8827 0.8829 0.8832 0.8834 0.8837
2305.000000 0.8840 0.8844 0.8849 0.8854 0.8859
2310.000000 0.8864 0.8869 0.8874 0.8879 0.8884
2315.000000 0.8888 0.8893 0.8898 0.8903 0.8907
2320.000000 0.8912 0.8917 0.8922 0.8927 0.8932
2325.000000 0.8938 0.8944 0.8950 0.8956 0.8957
2330.000000 0.8959 0.8959 0.8959 0.8957 0.8956
2335.000000 0.8953 0.8951 0.8948 0.8946 0.8943
2340.000000 0.8941 0.8936 0.8931 0.8926 0.8922
2345.000000 0.8919 0.8917 0.8915 0.8913 0.8915
2350.000000 0.8917 0.8921 0.8925 0.8933 0.8941
2355.000000 0.8950 0.8959 0.8967 0.8975 0.8980
2360.000000 0.8986 0.8987 0.8988 0.8988 0.8988
2365.000000 0.8988 0.8988 0.8987 0.8987 0.8982
2370.000000 0.8978 0.8972 0.8967 0.8961 0.8956
2375.000000 0.8949 0.8942 0.8935 0.8928 0.8921
2380.000000 0.8914 0.8902 0.8891 0.8878 0.8865
2385.000000 0.8852 0.8840 0.8829 0.8818 0.8810
2390.000000 0.8802 0.8794 0.8787 0.8785 0.8784
2395.000000 0.8783 0.8783 0.8782 0.8782 0.8781
2400.000000 0.8781 0.8780 0.8780 0.8779 0.8779
2405.000000 0.8778 0.8778 0.8777 0.8777 0.8776
2410.000000 0.8776 0.8775 0.8775 0.8774 0.8774
2415.000000 0.8773 0.8773 0.8772 0.8772 0.8772
2420.000000 0.8773 0.8773 0.8774 0.8774 0.8775
2425.000000 0.8775 0.8776 0.8776 0.8777 0.8777
2430.000000 0.8778 0.8778 0.8779 0.8779 0.8780
2435.000000 0.8780 0.8780 0.8780 0.8781 0.8781
2440.000000 0.8782 0.8782 0.8782 0.8782 0.8783
2445.000000 0.8783 0.8784 0.8784 0.8784 0.8784
2450.000000 0.8785 0.8785 0.8786 0.8786 0.8786
2455.000000 0.8786 0.8787 0.8787 0.8788 0.8788
2460.000000 0.8788 0.8788 0.8789 0.8789 0.8789
2465.000000 0.8788 0.8788 0.8787 0.8787 0.8787
2470.000000 0.8787 0.8786 0.8786 0.8785 0.8785
2475.000000 0.8785 0.8785 0.8784 0.8784 0.8783
2480.000000 0.8783 0.8783 0.8783 0.8782 0.8782
2485.000000 0.8781 0.8781 0.8781 0.8781 0.8780
2490.000000 0.8780 0.8780 0.8780 0.8779 0.8779
2495.000000 0.8779 0.8779 0.8778 0.8778 0.8778
2500.000000 0.8778 0.8778 0.8778 0.8777 0.8777
2505.000000 0.8777 0.8777 0.8776 0.8776 0.8776
2510.000000 0.8776 0.8775 0.8775 0.8775 0.8775
2515.000000 0.8775 0.8775 0.8774 0.8774 0.8774
2520.000000 0.8774 0.8774 0.8774 0.8774 0.8774
2525.000000 0.8774 0.8774 0.8774 0.8774 0.8774
2530.000000 0.8774 0.8774 0.8774 0.8774 0.8774
2535.000000 0.8773 0.8773 0.8773 0.8773 0.8773
2540.000000 0.8773 0.8773 0.8773 0.8773 0.8773
2545.000000 0.8773 0.8773 0.8773 0.8773 0.8773
2550.000000 0.8774 0.8774 0.8774 0.8774 0.8775
2555.000000 0.8775 0.8775 0.8775 0.8776 0.8776
2560.000000 0.8776 0.8776 0.8777 0.8777 0.8777
2565.000000 0.8777 0.8778 0.8778 0.8778 0.8778
2570.000000 0.8779 0.8779 0.8779 0.8779 0.8780
2575.000000 0.8780 0.8780 0.8780 0.8781 0.8781
2580.000000 0.8781 0.8781 0.8782 0.8782 0.8782
2585.000000 0.8782 0.8782 0.8782 0.8782 0.8782
2590.000000 0.8782 0.8782 0.8782 0.8782 0.8782
2595.000000 0.8782 0.8782 0.8782 0.8782 0.8782
2600.000000 0.8782 0.8782 0.8782 0.8781 0.8781
2605.000000 0.8781 0.8781 0.8781 0.8781 0.8781
2610.000000 0.8781 0.8781 0.8781 0.8781 0.8781
2615.000000 0.8781 0.8781 0.8781 0.8781 0.8781
2620.000000 0.8781 0.8781 0.8781 0.8781 0.8781
2625.000000 0.8781 0.8781 0.8781 0.8781 0.8781
2630.000000 0.8782 0.8782 0.8782 0.8782 0.8782
2635.000000 0.8782 0.8783 0.8783 0.8783 0.8783
2640.000000 0.8783 0.8783 0.8783 0.8783 0.8784
2645.000000 0.8784 0.8784 0.8784 0.8784 0.8784
2650.000000 0.8785 0.8785 0.8785 0.8785 0.8785
2655.000000 0.8785 0.8785 0.8785 0.8786 0.8786
2660.000000 0.8786 0.8786 0.8786 0.8786 0.8786
2665.000000 0.8786 0.8786 0.8786 0.8786 0.8786
2670.000000 0.8786 0.8785 0.8785 0.8785 0.8785
2675.000000 0.8785 0.8785 0.8785 0.8785 0.8785
2680.000000 0.8785 0.8785 0.8785 0.8785 0.8785
2685.000000 0.8785 0.8785 0.8785 0.8785 0.8784
2690.000000 0.8784 0.8784 0.8784 0.8783 0.8783
2695.000000 0.8782 0.8782 0.8781 0.8781 0.8780
2700.000000 0.8780 0.8780 0.8780 0.8779 0.8779
2705.000000 0.8778 0.8778 0.8777 0.8777 0.8776
2710.000000 0.8776 0.8775 0.8775 0.8774 0.8774
2715.000000 0.8774 0.8774 0.8773 0.8773 0.8772
2720.000000 0.8772 0.8771 0.8771 0.8771 0.8771
2725.000000 0.8770 0.8770 0.8769 0.8769 0.8769
2730.000000 0.8769 0.8768 0.8768 0.8767 0.8767
2735.000000 0.8766 0.8766 0.8765 0.8765 0.8764
2740.000000 0.8763 0.8762 0.8762 0.8761 0.8760
2745.000000 0.8759 0.8758 0.8757 0.8757 0.8756
2750.000000 0.8755 0.8754 0.8754 0.8753 0.8752
2755.000000 0.8751 0.8750 0.8749 0.8749 0.8748
2760.000000 0.8748 0.8747 0.8747 0.8746 0.8746
2765.000000 0.8745 0.8745 0.8744 0.8743 0.8742
2770.000000 0.8742 0.8741 0.8741 0.8741 0.8741
2775.000000 0.8741 0.8741 0.8741 0.8741 0.8741
2780.000000 0.8741 0.8741 0.8741 0.8741 0.8741
2785.000000 0.8740 0.8740 0.8740 0.8740 0.8740
2790.000000 0.8740 0.8740 0.8740 0.8740 0.8741
2795.000000 0.8741 0.8742 0.8742 0.8743 0.8743
2800.000000 0.8744 0.8745 0.8746 0.8746 0.8747
2805.000000 0.8747 0.8748 0.8748 0.8749 0.8749
2810.000000 0.8750 0.8751 0.8752 0.8753 0.8754
2815.000000 0.8755 0.8756 0.8757 0.8758 0.8759
2820.000000 0.8760 0.8761 0.8762 0.8763 0.8764
2825.000000 0.8765 0.8766 0.8767 0.8768 0.8770
2830.000000 0.8772 0.8775 0.8778 0.8781 0.8785
2835.000000 0.8788 0.8791 0.8794 0.8798 0.8801
2840.000000 0.8804 0.8807 0.8811 0.8815 0.8819
2845.000000 0.8821 0.8823 0.8823 0.8824 0.8824
2850.000000 0.8825 0.8825 0.8826 0.8825 0.8824
2855.000000 0.8822 0.8820 0.8818 0.8816 0.8814
2860.000000 0.8812 0.8810 0.8809 0.8808 0.8807
2865.000000 0.8806 0.8805 0.8804 0.8803 0.8802
2870.000000 0.8801 0.8801 0.8801 0.8800 0.8800
2875.000000 0.8799 0.8799 0.8798 0.8798 0.8798
2880.000000 0.8798 0.8798 0.8798 0.8798 0.8799
2885.000000 0.8799 0.8800 0.8800 0.8801 0.8802
2890.000000 0.8803 0.8803 0.8804 0.8806 0.8808
2895.000000 0.8810 0.8813 0.8815 0.8818 0.8820
2900.000000 0.8823 0.8826 0.8830 0.8837 0.8845
2905.000000 0.8853 0.8861 0.8870 0.8879 0.8884
2910.000000 0.8889 0.8889 0.8890 0.8891 0.8892
2915.000000 0.8891 0.8890 0.8889 0.8888 0.8884
2920.000000 0.8881 0.8877 0.8874 0.8869 0.8865
2925.000000 0.8857 0.8849 0.8841 0.8833 0.8826
2930.000000 0.8819 0.8813 0.8807 0.8802 0.8797
2935.000000 0.8792 0.8787 0.8782 0.8778 0.8773
2940.000000 0.8769 0.8765 0.8762 0.8760 0.8758
2945.000000 0.8755 0.8753 0.8751 0.8749 0.8747
2950.000000 0.8745 0.8743 0.8741 0.8739 0.8737
2955.000000 0.8734 0.8732 0.8730 0.8728 0.8727
2960.000000 0.8726 0.8725 0.8724 0.8723 0.8722
2965.000000 0.8721 0.8720 0.8719 0.8718 0.8717
2970.000000 0.8716 0.8715 0.8714 0.8713 0.8713
2975.000000 0.8712 0.8712 0.8711 0.8711 0.8710
2980.000000 0.8710 0.8709 0.8709 0.8708 0.8708
2985.000000 0.8707 0.8707 0.8705 0.8704 0.8703
2990.000000 0.8702 0.8701 0.8700 0.8698 0.8697
2995.000000 0.8696 0.8695 0.8693 0.8692 0.8691
3000.000000 0.8690 0.8689 0.8688 0.8686 0.8685
3005.000000 0.8684 0.8683 0.8681 0.8680 0.8679
3010.000000 0.8678 0.8676 0.8675 0.8674 0.8673
3015.000000 0.8671 0.8670 0.8669 0.8668 0.8667
3020.000000 0.8666 0.8665 0.8665 0.8664 0.8664
3025.000000 0.8663 0.8663 0.8662 0.8662 0.8661
3030.000000 0.8661 0.8660 0.8660 0.8659 0.8659
3035.000000 0.8658 0.8658 0.8657 0.8657 0.8657
3040.000000 0.8657 0.8657 0.8657 0.8657 0.8657
3045.000000 0.8657 0.8657 0.8657 0.8657 0.8657
3050.000000 0.8657 0.8656 0.8656 0.8656 0.8656
3055.000000 0.8656 0.8656 0.8656 0.8656 0.8656
3060.000000 0.8657 0.8657 0.8657 0.8657 0.8657
3065.000000 0.8657 0.8657 0.8657 0.8657 0.8657
3070.000000 0.8657 0.8657 0.8657 0.8657 0.8658
3075.000000 0.8658 0.8658 0.8658 0.8658 0.8658
3080.000000 0.8658 0.8658 0.8658 0.8658 0.8658
3085.000000 0.8658 0.8658 0.8658 0.8659 0.8659
3090.000000 0.8659 0.8659 0.8660 0.8660 0.8660
3095.000000 0.8660 0.8661 0.8661 0.8661 0.8661
3100.000000 0.8662 0.8662 0.8662 0.8662 0.8662
3105.000000 0.8662 0.8663 0.8663 0.8663 0.8663
3110.000000 0.8664 0.8664 0.8664 0.8664 0.8665
3115.000000 0.8665 0.8665 0.8665 0.8665 0.8665
3120.000000 0.8665 0.8665 0.8665 0.8665 0.8665
3125.000000 0.8665 0.8665 0.8665 0.8665 0.8665
3130.000000 0.8666 0.8666 0.8666 0.8666 0.8666
3135.000000 0.8666 0.8666 0.8666 0.8666 0.8666
3140.000000 0.8666 0.8666 0.8666 0.8666 0.8666
3145.000000 0.8666 0.8666 0.8666 0.8666 0.8666
3150.000000 0.8667 0.8666 0.8666 0.8665 0.8665
3155.000000 0.8665 0.8665 0.8664 0.8664 0.8663
3160.000000 0.8663 0.8662 0.8662 0.8662 0.8662
3165.000000 0.8661 0.8661 0.8660 0.8660 0.8659
3170.000000 0.8659 0.8659 0.8659 0.8658 0.8658
3175.000000 0.8657 0.8657 0.8656 0.8656 0.8656
3180.000000 0.8656 0.8655 0.8655 0.8654 0.8654
3185.000000 0.8653 0.8653 0.8652 0.8652 0.8652
3190.000000 0.8652 0.8651 0.8651 0.8650 0.8650
3195.000000 0.8649 0.8649 0.8649 0.8649 0.8648
3200.000000 0.8648 0.8647 0.8646 0.8645 0.8645
3205.000000 0.8644 0.8644 0.8643 0.8642 0.8641
3210.000000 0.8641 0.8640 0.8640 0.8639 0.8639
3215.000000 0.8638 0.8637 0.8636 0.8636 0.8635
3220.000000 0.8635 0.8634 0.8634 0.8633 0.8632
3225.000000 0.8631 0.8631 0.8630 0.8630 0.8629
3230.000000 0.8628 0.8627 0.8627 0.8626 0.8626
3235.000000 0.8625 0.8625 0.8624 0.8623 0.8622
3240.000000 0.8622 0.8621 0.8621 0.8620 0.8620
3245.000000 0.8619 0.8619 0.8618 0.8618 0.8617
3250.000000 0.8617 0.8617 0.8617 0.8616 0.8616
3255.000000 0.8616 0.8616 0.8615 0.8615 0.8615
3260.000000 0.8615 0.8614 0.8614 0.8613 0.8613
3265.000000 0.8613 0.8613 0.8612 0.8612 0.8612
3270.000000 0.8612 0.8611 0.8611 0.8611 0.8611
3275.000000 0.8610 0.8610 0.8609 0.8609 0.8609
3280.000000 0.8609 0.8608 0.8608 0.8608 0.8608
3285.000000 0.8607 0.8607 0.8606 0.8606 0.8606
3290.000000 0.8606 0.8605 0.8605 0.8605 0.8605
3295.000000 0.8604 0.8604 0.8604 0.8604 0.8603
3300.000000 0.8603 0.8603 0.8603 0.8603 0.8603
3305.000000 0.8602 0.8602 0.8602 0.8602 0.8601
3310.000000 0.8601 0.8601 0.8601 0.8601 0.8601
3315.000000 0.8600 0.8600 0.8600 0.8600 0.8599
3320.000000 0.8599 0.8599 0.8599 0.8599 0.8599
3325.000000 0.8598 0.8598 0.8598 0.8598 0.8597
3330.000000 0.8597 0.8597 0.8597 0.8596 0.8596
3335.000000 0.8596 0.8596 0.8596 0.8596 0.8595
3340.000000 0.8595 0.8595 0.8595 0.8594 0.8594
3345.000000 0.8594 0.8594 0.8594 0.8594 0.8594
3350.000000 0.8594 0.8594 0.8594 0.8594 0.8594
3355.000000 0.8593 0.8593 0.8593 0.8593 0.8593
3360.000000 0.8593 0.8593 0.8593 0.8593 0.8593
3365.000000 0.8593 0.8593 0.8593 0.8593 0.8593
3370.000000 0.8593 0.8593 0.8593 0.8593 0.8593
3375.000000 0.8592 0.8592 0.8592 0.8592 0.8592
3380.000000 0.8592 0.8592 0.8592 0.8592 0.8592
3385.000000 0.8592 0.8593 0.8593 0.8594 0.8594
3390.000000 0.8595 0.8595 0.8596 0.8597 0.8598
3395.000000 0.8598 0.8599 0.8599 0.8600 0.8601
3400.000000 0.8602 0.8602 0.8603 0.8603 0.8604
3405.000000 0.8604 0.8605 0.8606 0.8607 0.8607
3410.000000 0.8608 0.8608 0.8609 0.8610 0.8611
3415.000000 0.8612 0.8614 0.8615 0.8616 0.8617
3420.000000 0.8619 0.8620 0.8622 0.8623 0.8625
3425.000000 0.8626 0.8648 0.8628 0.8630 0.8631
3430.000000 0.8633 0.8634 0.8635 0.8636 0.8638
3435.000000 0.8639 0.8641 0.8642 0.8643 0.8644
3440.000000 0.8646 0.8647 0.8649 0.8650 0.8651
3445.000000 0.8652 0.8654 0.8656 0.8658 0.8659
3450.000000 0.8661 0.8662 0.8664 0.8666 0.8668
3455.000000 0.8669 0.8671 0.8673 0.8675 0.8676
3460.000000 0.8678 0.8680 0.8682 0.8683 0.8685
3465.000000 0.8687 0.8689 0.8690 0.8692 0.8694
3470.000000 0.8696 0.8697 0.8699 0.8701 0.8703
3475.000000 0.8705 0.8707 0.8709 0.8711 0.8713
3480.000000 0.8715 0.8717 0.8719 0.8720 0.8722
3485.000000 0.8724 0.8726 0.8728 0.8730 0.8732
3490.000000 0.8734 0.8736 0.8738 0.8739 0.8741
3495.000000 0.8741 0.8742 0.8742 0.8743 0.8743
3500.000000 0.8744 0.8744 0.8745 0.8745 0.8746
3505.000000 0.8746 0.8747 0.8747 0.8748 0.8748
3510.000000 0.8749 0.8749 0.8750 0.8750 0.8751
3515.000000 0.8751 0.8751 0.8751 0.8752 0.8752
3520.000000 0.8752 0.8752 0.8752 0.8752 0.8752
3525.000000 0.8752 0.8752 0.8752 0.8753 0.8753
3530.000000 0.8753 0.8753 0.8753 0.8753 0.8753
3535.000000 0.8753 0.8753 0.8753 0.8754 0.8754
3540.000000 0.8754 0.8754 0.8754 0.8754 0.8754
3545.000000 0.8754 0.8754 0.8754 0.8754 0.8754
3550.000000 0.8755 0.8755 0.8755 0.8755 0.8755
3555.000000 0.8755 0.8755 0.8755 0.8755 0.8755
3560.000000 0.8755 0.8755 0.8756 0.8756 0.8756
3565.000000 0.8756 0.8756 0.8756 0.8756 0.8756
3570.000000 0.8756 0.8756 0.8757 0.8757 0.8757
3575.000000 0.8757 0.8758 0.8758 0.8758 0.8758
3580.000000 0.8759 0.8759 0.8759 0.8759 0.8759
3585.000000 0.8759 0.8760 0.8760 0.8760 0.8760
3590.000000 0.8761 0.8761 0.8761 0.8761 0.8762
3595.000000 0.8762 0.8762 0.8762 0.8762 0.8762
3600.000000 0.8762 0.8762 0.8762 0.8762 0.8762
3605.000000 0.8762 0.8762 0.8762 0.8762 0.8761
3610.000000 0.8761 0.8761 0.8761 0.8761 0.8761
3615.000000 0.8761 0.8761 0.8761 0.8762 0.8762
3620.000000 0.8762 0.8762 0.8763 0.8763 0.8764
3625.000000 0.8764 0.8765 0.8765 0.8765 0.8765
3630.000000 0.8766 0.8766 0.8767 0.8767 0.8767
3635.000000 0.8767 0.8767 0.8766 0.8766 0.8765
3640.000000 0.8765 0.8764 0.8764 0.8763 0.8763
3645.000000 0.8762 0.8762 0.8761 0.8761 0.8760
3650.000000 0.8760 0.8758 0.8757 0.8754 0.8752
3655.000000 0.8749 0.8747 0.8744 0.8742 0.8739
3660.000000 0.8737 0.8734 0.8731 0.8728 0.8725
3665.000000 0.8722 0.8720 0.8717 0.8714 0.8711
3670.000000 0.8708 0.8705 0.8702 0.8699 0.8697
3675.000000 0.8694 0.8691 0.8690 0.8689 0.8690
3680.000000 0.8691 0.8694 0.8697 0.8707 0.8717
3685.000000 0.8726 0.8735 0.8743 0.8751 0.8752
3690.000000 0.8753 0.8753 0.8753 0.8753 0.8753
3695.000000 0.8753 0.8754 0.8755 0.8756 0.8757
3700.000000 0.8758 0.8758 0.8759 0.8761 0.8763
3705.000000 0.8765 0.8767 0.8769 0.8772 0.8774
3710.000000 0.8777 0.8779 0.8781 0.8783 0.8786
3715.000000 0.8788 0.8791 0.8794 0.8798 0.8801
3720.000000 0.8804 0.8807 0.8811 0.8814 0.8817
3725.000000 0.8817 0.8817 0.8817 0.8817 0.8817
3730.000000 0.8817 0.8811 0.8805 0.8796 0.8787
3735.000000 0.8771 0.8756 0.8743 0.8731 0.8729
3740.000000 0.8728 0.8728 0.8729 0.8729 0.8730
3745.000000 0.8730 0.8731 0.8731 0.8732 0.8732
3750.000000 0.8733 0.8733 0.8734 0.8734 0.8735
3755.000000 0.8735 0.8736 0.8737 0.8738 0.8738
3760.000000 0.8739 0.8739 0.8740 0.8740 0.8741
3765.000000 0.8741 0.8742 0.8742 0.8743 0.8743
3770.000000 0.8744 0.8744 0.8745 0.8745 0.8746
3775.000000 0.8746 0.8747 0.8747 0.8748 0.8748
3780.000000 0.8749 0.8749 0.8750 0.8750 0.8751
3785.000000 0.8751 0.8752 0.8752 0.8753 0.8753
3790.000000 0.8754 0.8754 0.8755 0.8755 0.8755
##END=
