##TITLE=CARBONYL SULFIDE
##JCAMP-DX=4.24
##DATA TYPE=INFRARED SPECTRUM
##CLASS=COBLENTZ
##ORIGIN=DOW CHEMICAL COMPANY
##OWNER=COBLENTZ SOCIETY
Collection (C) 2018 copyright by the U.S. Secretary of Commerce
on behalf of the United States of America. All rights reserved.
##DATE=1964
##NAMES=oxo(thioxo)methane
##CAS REGISTRY NO=463-58-1
##MOLFORM=C O S
##SOURCE REFERENCE=COBLENTZ NO. 8756
##$NIST SOURCE=COBLENTZ
##$NIST IMAGE=cob-r8756
##SPECTROMETER/DATA SYSTEM=DOW KBr FOREPRISM-GRATING
##INSTRUMENT PARAMETERS=GRATING CHANGED AT 5.0, 7.5, 14.9 MICRON
$$ ABSORPTION DUE TO CO2 AT 2365 AND 2349 CM^-^1
$$ ABSORPTION DUE TO CS2 AT 1545 AND 1531 CM^-^1
$$ SPECTRAL FEATURE AROUND 670 CM^-^1 (PROBABLY DUE TO CO2) IS PROBABLY AFFECTED BY AN ARTIFACT CAUSED BY A CHANGE IN GRATING.
##STATE=GAS (100 mmHg, N2 ADDED, TOTAL PRESSURE 600 mmHg)
##PATH LENGTH=5 CM
##SAMPLING PROCEDURE=TRANSMISSION
##RESOLUTION=2
##DATA PROCESSING=DIGITIZED BY NIST FROM HARD COPY (FROM TWO SEGMENTS)
##XUNITS=1/CM
##YUNITS=TRANSMITTANCE
##XFACTOR=1.000000
##YFACTOR=1
##DELTAX=1.347714
##FIRSTX=456.873
##LASTX=3780.34
##FIRSTY=0.974
##MAXX=3780.34
##MINX=456.873
##MAXY=1.008
##MINY=0.002
##NPOINTS=2467
##XYDATA=(X++(Y..Y))
456.873000 0.9740 0.9740 0.9740 0.9740 0.9740
463.611570 0.9740 0.9740 0.9740 0.9740 0.9740
470.350139 0.9740 0.9740 0.9740 0.9740 0.9740
477.088709 0.9740 0.9740 0.9740 0.9740 0.9740
483.827278 0.9740 0.9740 0.9720 0.9720 0.9720
490.565848 0.9720 0.9700 0.9700 0.9700 0.9680
497.304418 0.9680 0.9660 0.9620 0.9600 0.9550
504.042987 0.9431 0.9360 0.9320 0.9151 0.9110
510.781557 0.9090 0.8920 0.8800 0.8760 0.8730
517.520126 0.8690 0.8690 0.8630 0.8570 0.8570
524.258696 0.9090 0.3466 0.4927 0.6376 0.7536
530.997265 0.8665 0.7586 0.7977 0.8377 0.8420
537.735835 0.8440 0.8500 0.8630 0.8710 0.8899
544.474405 0.9149 0.9240 0.9320 0.9449 0.9549
551.212974 0.9600 0.9720 0.9780 0.9810 0.9830
557.951544 0.9890 0.9910 0.9930 0.9930 0.9950
564.690113 0.9970 1.0000 1.0000 1.0000 1.0020
571.428683 1.0020 1.0020 1.0020 1.0020 1.0020
578.167253 1.0020 1.0020 1.0020 1.0020 1.0020
584.905822 1.0040 1.0040 1.0040 1.0040 1.0040
591.644392 1.0040 1.0040 1.0040 1.0040 1.0060
598.382961 1.0060 1.0060 1.0060 1.0060 1.0080
605.121531 1.0080 1.0080 1.0060 1.0060 1.0060
611.860100 1.0060 1.0080 1.0080 1.0080 1.0040
618.598670 0.9970 0.9970 1.0000 1.0020 1.0040
625.337240 1.0060 1.0060 1.0060 1.0060 1.0060
632.075809 1.0080 1.0080 1.0040 1.0040 1.0000
638.814379 0.9970 0.9950 0.9890 0.9830 0.9830
645.552948 0.9810 0.9780 0.9740 0.9680 0.9660
652.291518 0.9660 0.9660 0.9640 0.9640 0.9640
659.030088 0.9640 0.9660 0.9700 0.9700 0.9780
665.768657 0.9780 0.9830 0.9830 0.9760 0.9601
672.507227 0.9410 0.9150 0.9150 0.9150 0.9150
679.245796 0.9150 0.9150 0.9150 0.9150 0.9180
685.984366 0.9200 0.9260 0.9300 0.9320 0.9320
692.722935 0.9340 0.9430 0.9450 0.9490 0.9490
699.461505 0.9510 0.9530 0.9550 0.9550 0.9570
706.200075 0.9600 0.9620 0.9620 0.9620 0.9600
712.938644 0.9570 0.9570 0.9570 0.9570 0.9550
719.677214 0.9530 0.9490 0.9490 0.9569 0.9600
726.415783 0.9600 0.9600 0.9600 0.9600 0.9600
733.154353 0.9620 0.9640 0.9640 0.9640 0.9640
739.892923 0.9640 0.9660 0.9660 0.9660 0.9660
746.631492 0.9660 0.9660 0.9660 0.9680 0.9680
753.370062 0.9680 0.9680 0.9660 0.9660 0.9660
760.108631 0.9660 0.9680 0.9700 0.9700 0.9700
766.847201 0.9680 0.9680 0.9680 0.9680 0.9680
773.585770 0.9680 0.9680 0.9680 0.9680 0.9680
780.324340 0.9680 0.9660 0.9680 0.9680 0.9700
787.062910 0.9700 0.9700 0.9700 0.9700 0.9720
793.801479 0.9700 0.9700 0.9700 0.9700 0.9700
800.540049 0.9700 0.9700 0.9700 0.9700 0.9680
807.278618 0.9680 0.9680 0.9680 0.9680 0.9680
814.017188 0.9640 0.9640 0.9620 0.9620 0.9600
820.755758 0.9570 0.9490 0.9430 0.9360 0.9340
827.494327 0.9240 0.9150 0.9110 0.8941 0.8861
834.232897 0.8130 0.7830 0.7680 0.7600 0.7261
840.971466 0.6722 0.6342 0.5793 0.5631 0.5372
847.710036 0.5290 0.5270 0.5180 0.5180 0.5389
854.448605 0.5769 0.6089 0.6299 0.6489 0.6798
861.187175 0.7769 0.6340 0.5671 0.5041 0.4571
867.925745 0.4490 0.4510 0.4550 0.4620 0.4680
874.664314 0.5041 0.5840 0.6799 0.7748 0.7979
881.402884 0.8169 0.8359 0.8818 0.9357 0.9598
888.141453 0.9620 0.9700 0.9760 0.9780 0.9780
894.880023 0.9780 0.9780 0.9780 0.9780 0.9810
901.618593 0.9810 0.9780 0.9780 0.9780 0.9810
908.357162 0.9810 0.9810 0.9810 0.9780 0.9780
915.095732 0.9780 0.9780 0.9810 0.9810 0.9810
921.834301 0.9810 0.9810 0.9810 0.9830 0.9830
928.572871 0.9830 0.9830 0.9830 0.9830 0.9850
935.311440 0.9850 0.9870 0.9870 0.9870 0.9870
942.050010 0.9850 0.9850 0.9850 0.9850 0.9870
948.788580 0.9870 0.9870 0.9870 0.9850 0.9850
955.527149 0.9850 0.9870 0.9870 0.9850 0.9850
962.265719 0.9830 0.9830 0.9850 0.9870 0.9870
969.004288 0.9870 0.9870 0.9850 0.9850 0.9850
975.742858 0.9850 0.9850 0.9850 0.9850 0.9850
982.481428 0.9850 0.9850 0.9850 0.9850 0.9850
989.219997 0.9850 0.9850 0.9830 0.9830 0.9830
995.958567 0.9850 0.9850 0.9850 0.9850 0.9850
1002.697136 0.9850 0.9830 0.9830 0.9830 0.9830
1009.435706 0.9830 0.9830 0.9830 0.9810 0.9810
1016.174275 0.9810 0.9780 0.9760 0.9720 0.9680
1022.912845 0.9570 0.9450 0.9340 0.9220 0.8990
1029.651415 0.8821 0.8760 0.8173 0.7832 0.7621
1036.389984 0.7450 0.7430 0.7410 0.7430 0.7450
1043.128554 0.7679 0.7959 0.8229 0.8548 0.8759
1049.867123 0.8649 0.8100 0.7960 0.7770 0.7730
1056.605693 0.7680 0.7640 0.7660 0.7710 0.7750
1063.344263 0.7851 0.8170 0.8230 0.8290 0.8550
1070.082832 0.8690 0.8800 0.9049 0.9358 0.9410
1076.821402 0.9490 0.9570 0.9620 0.9660 0.9700
1083.559971 0.9760 0.9780 0.9810 0.9830 0.9850
1090.298541 0.9850 0.9850 0.9830 0.9830 0.9830
1097.037110 0.9830 0.9830 0.9830 0.9830 0.9830
1103.775680 0.9830 0.9810 0.9810 0.9810 0.9830
1110.514250 0.9830 0.9830 0.9830 0.9850 0.9850
1117.252819 0.9850 0.9850 0.9890 0.9890 0.9910
1123.991389 0.9910 0.9910 0.9910 0.9930 0.9930
1130.729958 0.9930 0.9930 0.9930 0.9930 0.9930
1137.468528 0.9910 0.9910 0.9910 0.9930 0.9930
1144.207098 0.9930 0.9930 0.9930 0.9930 0.9930
1150.945667 0.9950 0.9950 0.9950 0.9950 0.9950
1157.684237 0.9950 0.9950 0.9930 0.9930 0.9930
1164.422806 0.9950 0.9950 0.9930 0.9930 0.9930
1171.161376 0.9930 0.9910 0.9910 0.9890 0.9850
1177.899946 0.9850 0.9830 0.9830 0.9830 0.9870
1184.638515 0.9890 0.9890 0.9890 0.9890 0.9890
1191.377085 0.9890 0.9890 0.9890 0.9890 0.9890
1198.115654 0.9910 0.9910 0.9930 0.9930 0.9930
1204.854224 0.9930 0.9910 0.9910 0.9910 0.9910
1211.592793 0.9910 0.9930 0.9930 0.9930 0.9930
1218.331363 0.9930 0.9950 0.9950 0.9950 0.9970
1225.069933 0.9970 0.9970 0.9970 0.9970 1.0000
1231.808502 1.0000 0.9970 0.9950 0.9930 0.9910
1238.547072 0.9870 0.9870 0.9850 0.9810 0.9810
1245.285641 0.9810 0.9780 0.9780 0.9780 0.9780
1252.024211 0.9780 0.9780 0.9780 0.9760 0.9760
1258.762781 0.9760 0.9740 0.9720 0.9700 0.9720
1265.501350 0.9740 0.9740 0.9740 0.9740 0.9760
1272.239920 0.9760 0.9760 0.9760 0.9760 0.9760
1278.978489 0.9760 0.9740 0.9740 0.9720 0.9720
1285.717059 0.9720 0.9720 0.9720 0.9720 0.9720
1292.455628 0.9700 0.9680 0.9680 0.9680 0.9680
1299.194198 0.9680 0.9680 0.9680 0.9680 0.9680
1305.932768 0.9680 0.9660 0.9660 0.9660 0.9680
1312.671337 0.9680 0.9700 0.9700 0.9700 0.9700
1319.409907 0.9680 0.9680 0.9680 0.9680 0.9680
1326.148476 0.9700 0.9700 0.9680 0.9660 0.9660
1332.887046 0.9620 0.9620 0.9680 0.9680 0.9680
1339.625616 0.9680 0.9660 0.9550 0.9550 0.9679
1346.364185 0.9700 0.9720 0.9740 0.9740 0.9740
1353.102755 0.9740 0.9810 0.9810 0.9830 0.9830
1359.841324 0.9850 0.9850 0.9850 0.9850 0.9830
1366.579894 0.9810 0.9810 0.9810 0.9780 0.9760
1373.318463 0.9740 0.9720 0.9700 0.9700 0.9700
1380.057033 0.9700 0.9680 0.9680 0.9680 0.9680
1386.795603 0.9680 0.9660 0.9640 0.9640 0.9620
1393.534172 0.9620 0.9620 0.9620 0.9620 0.9620
1400.272742 0.9600 0.9600 0.9600 0.9600 0.9620
1407.011311 0.9620 0.9620 0.9620 0.9640 0.9640
1413.749881 0.9640 0.9640 0.9640 0.9640 0.9620
1420.488451 0.9620 0.9620 0.9620 0.9620 0.9620
1427.227020 0.9620 0.9620 0.9600 0.9600 0.9600
1433.965590 0.9600 0.9600 0.9600 0.9620 0.9620
1440.704159 0.9620 0.9620 0.9600 0.9600 0.9600
1447.442729 0.9600 0.9600 0.9600 0.9600 0.9600
1454.181298 0.9600 0.9600 0.9570 0.9570 0.9570
1460.919868 0.9570 0.9570 0.9570 0.9570 0.9570
1467.658438 0.9550 0.9570 0.9570 0.9570 0.9570
1474.397007 0.9550 0.9490 0.9490 0.9490 0.9530
1481.135577 0.9570 0.9570 0.9570 0.9600 0.9620
1487.874146 0.9620 0.9600 0.9570 0.9530 0.9530
1494.612716 0.9570 0.9600 0.9600 0.9600 0.9600
1501.351286 0.9600 0.9600 0.9570 0.9530 0.9490
1508.089855 0.9450 0.9410 0.9410 0.9410 0.9390
1514.828425 0.9360 0.9340 0.9260 0.9180 0.9110
1521.566994 0.9070 0.8990 0.8920 0.8760 0.8730
1528.305564 0.8710 0.8690 0.8690 0.8690 0.8710
1535.044133 0.8730 0.8760 0.8760 0.8800 0.8880
1541.782703 0.8970 0.8970 0.8193 0.8379 0.8549
1548.521273 0.8570 0.8761 0.9180 0.9360 0.9530
1555.259842 0.9600 0.9620 0.9620 0.9570 0.9550
1561.998412 0.9510 0.9550 0.9620 0.9640 0.9640
1568.736981 0.9640 0.9640 0.9640 0.9640 0.9620
1575.475551 0.9600 0.9600 0.9600 0.9620 0.9640
1582.214121 0.9660 0.9660 0.9680 0.9680 0.9680
1588.952690 0.9680 0.9680 0.9680 0.9660 0.9640
1595.691260 0.9640 0.9660 0.9660 0.9660 0.9660
1602.429829 0.9660 0.9640 0.9640 0.9640 0.9660
1609.168399 0.9660 0.9620 0.9620 0.9620 0.9600
1615.906968 0.9600 0.9600 0.9600 0.9600 0.9600
1622.645538 0.9600 0.9600 0.9600 0.9600 0.9620
1629.384108 0.9620 0.9620 0.9620 0.9600 0.9600
1636.122677 0.9600 0.9600 0.9600 0.9620 0.9620
1642.861247 0.9570 0.9570 0.9570 0.9570 0.9600
1649.599816 0.9600 0.9600 0.9600 0.9600 0.9600
1656.338386 0.9600 0.9600 0.9600 0.9600 0.9600
1663.076956 0.9570 0.9570 0.9570 0.9570 0.9570
1669.815525 0.9550 0.9510 0.9470 0.9470 0.9470
1676.554095 0.9470 0.9450 0.9390 0.9390 0.9320
1683.292664 0.9260 0.9180 0.9180 0.9150 0.9150
1690.031234 0.9070 0.9050 0.8940 0.8840 0.8780
1696.769803 0.8760 0.8670 0.8630 0.8520 0.8480
1703.508373 0.8500 0.8550 0.8590 0.8650 0.8819
1710.246943 0.8991 0.9389 0.9070 0.8780 0.8570
1716.985512 0.8440 0.8400 0.8400 0.8400 0.8440
1723.724082 0.8591 0.8760 0.8820 0.9030 0.9200
1730.462651 0.9360 0.9450 0.9530 0.9570 0.9600
1737.201221 0.9600 0.9600 0.9600 0.9600 0.9600
1743.939791 0.9600 0.9600 0.9600 0.9600 0.9600
1750.678360 0.9600 0.9600 0.9600 0.9600 0.9600
1757.416930 0.9600 0.9600 0.9600 0.9600 0.9600
1764.155499 0.9600 0.9570 0.9570 0.9570 0.9570
1770.894069 0.9570 0.9570 0.9600 0.9600 0.9600
1777.632639 0.9600 0.9600 0.9600 0.9600 0.9600
1784.371208 0.9600 0.9600 0.9600 0.9600 0.9600
1791.109778 0.9600 0.9600 0.9570 0.9570 0.9570
1797.848347 0.9570 0.9550 0.9550 0.9570 0.9570
1804.586917 0.9570 0.9570 0.9570 0.9570 0.9570
1811.325486 0.9570 0.9570 0.9570 0.9570 0.9570
1818.064056 0.9570 0.9570 0.9570 0.9570 0.9570
1824.802626 0.9570 0.9570 0.9570 0.9570 0.9570
1831.541195 0.9570 0.9570 0.9570 0.9570 0.9570
1838.279765 0.9570 0.9570 0.9570 0.9530 0.9530
1845.018334 0.9530 0.9530 0.9530 0.9530 0.9530
1851.756904 0.9510 0.9510 0.9490 0.9490 0.9470
1858.495474 0.9410 0.9410 0.9360 0.9280 0.9200
1865.234043 0.9150 0.9050 0.8970 0.8970 0.8821
1871.972613 0.8759 0.8519 0.8190 0.8000 0.7810
1878.711182 0.7810 0.7660 0.7560 0.7520 0.7560
1885.449752 0.7661 0.7831 0.8190 0.8310 0.8440
1892.188321 0.9149 0.8841 0.8571 0.7773 0.7660
1898.926891 0.7560 0.7560 0.7620 0.7730 0.7810
1905.665461 0.7890 0.8190 0.8290 0.8380 0.8609
1912.404030 0.8861 0.9200 0.9240 0.9300 0.9390
1919.142600 0.9450 0.9470 0.9510 0.9550 0.9550
1925.881169 0.9570 0.9570 0.9570 0.9570 0.9570
1932.619739 0.9570 0.9570 0.9570 0.9570 0.9570
1939.358309 0.9570 0.9570 0.9570 0.9570 0.9570
1946.096878 0.9570 0.9570 0.9570 0.9570 0.9570
1952.835448 0.9570 0.9570 0.9570 0.9570 0.9570
1959.574017 0.9550 0.9550 0.9530 0.9530 0.9530
1966.312587 0.9510 0.9490 0.9430 0.9430 0.9390
1973.051156 0.9240 0.9150 0.9090 0.8990 0.8880
1979.789726 0.8819 0.8609 0.8170 0.8020 0.7790
1986.528296 0.7520 0.7310 0.7160 0.6911 0.6382
1993.266865 0.6189 0.6049 0.5840 0.5770 0.5670
2000.005435 0.5670 0.5729 0.5789 0.5891 0.5995
2006.744004 0.6089 0.6183 0.6441 0.6712 0.6979
2013.482574 0.7245 0.6885 0.6431 0.6010 0.5596
2020.221144 0.4766 0.3844 0.3143 0.2502 0.2316
2026.959713 0.2270 0.2199 0.2120 0.1409 0.0477
2033.698283 0.0143 0.0049 0.0020 0.0020 0.0020
2040.436852 0.0020 0.0020 0.0020 0.0020 0.0020
2047.175422 0.0020 0.0020 0.0020 0.0020 0.0020
2053.913991 0.0020 0.0020 0.0020 0.0020 0.0020
2060.652561 0.0020 0.0020 0.0020 0.0020 0.0020
2067.391131 0.0020 0.0020 0.0020 0.0020 0.0020
2074.129700 0.0020 0.0020 0.0020 0.0020 0.0020
2080.868270 0.0020 0.0020 0.0020 0.0023 0.0033
2087.606839 0.0211 0.0916 0.1619 0.2309 0.3003
2094.345409 0.3708 0.4412 0.5108 0.5804 0.6500
2101.083979 0.7114 0.7060 0.7008 0.6989 0.6967
2107.822548 0.6912 0.6885 0.7304 0.7723 0.8122
2114.561118 0.8516 0.7845 0.7174 0.7150 0.7140
2121.299687 0.7149 0.7159 0.7238 0.7321 0.7414
2128.038257 0.7508 0.7645 0.7788 0.7923 0.8056
2134.776826 0.8195 0.8335 0.8522 0.8720 0.8897
2141.515396 0.9070 0.9174 0.9258 0.9320 0.9375
2148.253966 0.9425 0.9475 0.9497 0.9507 0.9523
2154.992535 0.9543 0.9556 0.9566 0.9570 0.9570
2161.731105 0.9570 0.9570 0.9570 0.9570 0.9578
2168.469674 0.9593 0.9600 0.9600 0.9600 0.9600
2175.208244 0.9600 0.9600 0.9600 0.9600 0.9600
2181.946814 0.9600 0.9600 0.9600 0.9600 0.9600
2188.685383 0.9600 0.9600 0.9600 0.9600 0.9600
2195.423953 0.9600 0.9600 0.9600 0.9603 0.9613
2202.162522 0.9620 0.9620 0.9620 0.9620 0.9620
2208.901092 0.9620 0.9622 0.9631 0.9640 0.9640
2215.639661 0.9639 0.9629 0.9620 0.9620 0.9620
2222.378231 0.9620 0.9620 0.9620 0.9620 0.9620
2229.116801 0.9620 0.9620 0.9620 0.9620 0.9620
2235.855370 0.9620 0.9620 0.9620 0.9620 0.9620
2242.593940 0.9620 0.9620 0.9620 0.9620 0.9620
2249.332509 0.9620 0.9620 0.9612 0.9602 0.9600
2256.071079 0.9600 0.9600 0.9600 0.9600 0.9600
2262.809649 0.9589 0.9575 0.9570 0.9570 0.9570
2269.548218 0.9570 0.9580 0.9595 0.9600 0.9600
2276.286788 0.9600 0.9600 0.9600 0.9600 0.9600
2283.025357 0.9600 0.9592 0.9577 0.9560 0.9540
2289.763927 0.9521 0.9501 0.9477 0.9447 0.9415
2296.502496 0.9381 0.9352 0.9332 0.9316 0.9306
2303.241066 0.9253 0.9130 0.9040 0.9010 0.8969
2309.979636 0.8905 0.8848 0.8809 0.8752 0.8648
2316.718205 0.8524 0.8337 0.8172 0.8088 0.7971
2323.456775 0.7714 0.7474 0.7313 0.7178 0.7168
2330.195344 0.7144 0.7030 0.6919 0.6825 0.6739
2336.933914 0.6729 0.6721 0.6741 0.6759 0.6729
2343.672484 0.6700 0.6675 0.6650 0.6602 0.6552
2350.411053 0.6795 0.7051 0.7423 0.7804 0.7503
2357.149623 0.7153 0.6780 0.6405 0.6143 0.5896
2363.888192 0.5831 0.5796 0.5819 0.5853 0.6006
2370.626762 0.6188 0.6310 0.6414 0.6510 0.6604
2377.365331 0.6839 0.7130 0.7445 0.7771 0.8021
2384.103901 0.8238 0.8459 0.8681 0.9039 0.9473
2390.842471 0.9652 0.9672 0.9686 0.9696 0.9706
2397.581040 0.9715 0.9720 0.9720 0.9720 0.9720
2404.319610 0.9720 0.9720 0.9720 0.9720 0.9720
2411.058179 0.9720 0.9720 0.9720 0.9720 0.9720
2417.796749 0.9720 0.9720 0.9717 0.9707 0.9700
2424.535319 0.9700 0.9703 0.9713 0.9720 0.9720
2431.273888 0.9720 0.9720 0.9720 0.9720 0.9720
2438.012458 0.9720 0.9720 0.9720 0.9720 0.9720
2444.751027 0.9720 0.9720 0.9720 0.9720 0.9720
2451.489597 0.9720 0.9720 0.9720 0.9720 0.9720
2458.228167 0.9720 0.9720 0.9720 0.9720 0.9720
2464.966736 0.9720 0.9720 0.9720 0.9720 0.9720
2471.705306 0.9720 0.9720 0.9720 0.9720 0.9720
2478.443875 0.9720 0.9720 0.9720 0.9720 0.9720
2485.182445 0.9720 0.9720 0.9720 0.9720 0.9720
2491.921014 0.9720 0.9720 0.9720 0.9720 0.9727
2498.659584 0.9737 0.9740 0.9740 0.9740 0.9740
2505.398154 0.9734 0.9724 0.9720 0.9720 0.9714
2512.136723 0.9705 0.9700 0.9700 0.9705 0.9715
2518.875293 0.9720 0.9720 0.9720 0.9720 0.9720
2525.613862 0.9720 0.9720 0.9720 0.9720 0.9720
2532.352432 0.9720 0.9720 0.9717 0.9707 0.9700
2539.091002 0.9700 0.9700 0.9700 0.9700 0.9700
2545.829571 0.9700 0.9700 0.9700 0.9700 0.9700
2552.568141 0.9700 0.9700 0.9700 0.9700 0.9700
2559.306710 0.9697 0.9677 0.9659 0.9649 0.9639
2566.045280 0.9629 0.9620 0.9620 0.9620 0.9630
2572.783849 0.9641 0.9661 0.9680 0.9690 0.9700
2579.522419 0.9700 0.9700 0.9709 0.9719 0.9720
2586.260989 0.9720 0.9720 0.9720 0.9720 0.9720
2592.999558 0.9728 0.9738 0.9740 0.9740 0.9740
2599.738128 0.9740 0.9740 0.9740 0.9740 0.9740
2606.476697 0.9740 0.9740 0.9740 0.9740 0.9733
2613.215267 0.9723 0.9720 0.9720 0.9720 0.9720
2619.953837 0.9720 0.9720 0.9720 0.9720 0.9720
2626.692406 0.9720 0.9720 0.9720 0.9720 0.9720
2633.430976 0.9720 0.9720 0.9725 0.9735 0.9740
2640.169545 0.9740 0.9740 0.9740 0.9740 0.9740
2646.908115 0.9740 0.9740 0.9740 0.9740 0.9740
2653.646684 0.9740 0.9740 0.9740 0.9737 0.9727
2660.385254 0.9720 0.9720 0.9720 0.9720 0.9722
2667.123824 0.9732 0.9740 0.9740 0.9740 0.9740
2673.862393 0.9740 0.9740 0.9740 0.9740 0.9740
2680.600963 0.9740 0.9740 0.9740 0.9740 0.9740
2687.339532 0.9740 0.9730 0.9720 0.9720 0.9720
2694.078102 0.9720 0.9720 0.9710 0.9701 0.9700
2700.816672 0.9700 0.9700 0.9700 0.9691 0.9681
2707.555241 0.9680 0.9680 0.9680 0.9680 0.9672
2714.293811 0.9662 0.9660 0.9660 0.9660 0.9660
2721.032380 0.9667 0.9677 0.9680 0.9680 0.9680
2727.770950 0.9680 0.9680 0.9680 0.9680 0.9680
2734.509519 0.9680 0.9680 0.9680 0.9680 0.9680
2741.248089 0.9680 0.9680 0.9680 0.9685 0.9695
2747.986659 0.9705 0.9715 0.9720 0.9720 0.9720
2754.725228 0.9720 0.9720 0.9720 0.9720 0.9720
2761.463798 0.9720 0.9720 0.9716 0.9706 0.9700
2768.202367 0.9700 0.9703 0.9713 0.9720 0.9720
2774.940937 0.9720 0.9720 0.9720 0.9720 0.9720
2781.679507 0.9720 0.9720 0.9720 0.9718 0.9708
2788.418076 0.9699 0.9688 0.9678 0.9669 0.9660
2795.156646 0.9660 0.9662 0.9682 0.9700 0.9700
2801.895215 0.9700 0.9700 0.9700 0.9700 0.9700
2808.633785 0.9690 0.9680 0.9680 0.9680 0.9671
2815.372354 0.9661 0.9660 0.9660 0.9651 0.9641
2822.110924 0.9640 0.9640 0.9640 0.9640 0.9640
2828.849494 0.9640 0.9632 0.9622 0.9620 0.9620
2835.588063 0.9620 0.9620 0.9620 0.9620 0.9613
2842.326633 0.9603 0.9600 0.9600 0.9600 0.9600
2849.065202 0.9600 0.9600 0.9600 0.9600 0.9600
2855.803772 0.9600 0.9600 0.9600 0.9592 0.9577
2862.542342 0.9570 0.9570 0.9555 0.9526 0.9492
2869.280911 0.9452 0.9410 0.9365 0.9318 0.9269
2876.019481 0.9232 0.9212 0.9163 0.9070 0.8983
2882.758050 0.8909 0.8843 0.8794 0.8664 0.8353
2889.496620 0.8094 0.7965 0.7828 0.7666 0.7495
2896.235189 0.7297 0.7061 0.6670 0.6354 0.6324
2902.973759 0.6290 0.6236 0.6132 0.5752 0.5412
2909.712329 0.5348 0.5289 0.5279 0.5312 0.5889
2916.450898 0.6467 0.7049 0.7607 0.6911 0.6215
2923.189468 0.5328 0.4440 0.4715 0.5031 0.5332
2929.928037 0.5633 0.5962 0.6292 0.6623 0.6954
2936.666607 0.7561 0.8202 0.8848 0.9494 0.9608
2943.405177 0.9618 0.9628 0.9638 0.9648 0.9658
2950.143746 0.9667 0.9677 0.9687 0.9697 0.9700
2956.882316 0.9700 0.9700 0.9700 0.9700 0.9700
2963.620885 0.9700 0.9700 0.9700 0.9700 0.9700
2970.359455 0.9700 0.9694 0.9684 0.9680 0.9680
2977.098024 0.9680 0.9680 0.9680 0.9680 0.9680
2983.836594 0.9680 0.9680 0.9680 0.9680 0.9680
2990.575164 0.9680 0.9680 0.9680 0.9680 0.9680
2997.313733 0.9680 0.9680 0.9680 0.9677 0.9667
3004.052303 0.9660 0.9660 0.9660 0.9660 0.9660
3010.790872 0.9660 0.9655 0.9636 0.9620 0.9620
3017.529442 0.9620 0.9620 0.9620 0.9620 0.9620
3024.268012 0.9620 0.9620 0.9620 0.9621 0.9631
3031.006581 0.9640 0.9640 0.9640 0.9640 0.9640
3037.745151 0.9640 0.9640 0.9630 0.9620 0.9620
3044.483720 0.9620 0.9620 0.9620 0.9620 0.9620
3051.222290 0.9620 0.9620 0.9620 0.9620 0.9620
3057.960860 0.9620 0.9620 0.9620 0.9612 0.9602
3064.699429 0.9600 0.9600 0.9574 0.9539 0.9501
3071.437999 0.9461 0.9419 0.9374 0.9333 0.9294
3078.176568 0.9254 0.9215 0.9178 0.9144 0.9124
3084.915138 0.9114 0.9116 0.9126 0.9166 0.9231
3091.653707 0.9287 0.9337 0.9373 0.9398 0.9410
3098.392277 0.9410 0.9340 0.9192 0.9101 0.9081
3105.130847 0.9087 0.9126 0.9167 0.9212 0.9274
3111.869416 0.9368 0.9443 0.9483 0.9516 0.9536
3118.607986 0.9553 0.9563 0.9570 0.9570 0.9574
3125.346555 0.9589 0.9600 0.9600 0.9600 0.9600
3132.085125 0.9600 0.9600 0.9600 0.9600 0.9600
3138.823695 0.9600 0.9600 0.9600 0.9599 0.9584
3145.562264 0.9570 0.9570 0.9570 0.9570 0.9570
3152.300834 0.9570 0.9570 0.9570 0.9570 0.9560
3159.039403 0.9551 0.9550 0.9550 0.9559 0.9569
3165.777973 0.9570 0.9570 0.9570 0.9570 0.9570
3172.516542 0.9570 0.9570 0.9570 0.9570 0.9570
3179.255112 0.9570 0.9570 0.9570 0.9570 0.9570
3185.993682 0.9570 0.9570 0.9570 0.9570 0.9570
3192.732251 0.9570 0.9570 0.9564 0.9554 0.9550
3199.470821 0.9550 0.9550 0.9550 0.9550 0.9550
3206.209390 0.9545 0.9535 0.9530 0.9530 0.9530
3212.947960 0.9530 0.9530 0.9530 0.9530 0.9530
3219.686530 0.9530 0.9530 0.9526 0.9516 0.9510
3226.425099 0.9510 0.9510 0.9510 0.9510 0.9510
3233.163669 0.9510 0.9510 0.9510 0.9510 0.9510
3239.902238 0.9510 0.9508 0.9498 0.9490 0.9490
3246.640808 0.9490 0.9490 0.9490 0.9490 0.9490
3253.379377 0.9490 0.9490 0.9490 0.9490 0.9490
3260.117947 0.9490 0.9490 0.9490 0.9490 0.9490
3266.856517 0.9490 0.9490 0.9490 0.9490 0.9490
3273.595086 0.9490 0.9490 0.9490 0.9481 0.9471
3280.333656 0.9470 0.9470 0.9470 0.9470 0.9470
3287.072225 0.9470 0.9470 0.9470 0.9462 0.9452
3293.810795 0.9450 0.9450 0.9450 0.9450 0.9450
3300.549365 0.9450 0.9450 0.9450 0.9450 0.9450
3307.287934 0.9450 0.9450 0.9450 0.9450 0.9450
3314.026504 0.9450 0.9450 0.9450 0.9450 0.9450
3320.765073 0.9450 0.9450 0.9450 0.9450 0.9450
3327.503643 0.9450 0.9450 0.9450 0.9450 0.9450
3334.242212 0.9446 0.9436 0.9430 0.9430 0.9430
3340.980782 0.9430 0.9430 0.9430 0.9430 0.9430
3347.719352 0.9430 0.9430 0.9433 0.9443 0.9450
3354.457921 0.9450 0.9450 0.9450 0.9450 0.9450
3361.196491 0.9452 0.9462 0.9470 0.9470 0.9470
3367.935060 0.9470 0.9470 0.9470 0.9470 0.9470
3374.673630 0.9470 0.9470 0.9471 0.9480 0.9490
3381.412200 0.9490 0.9490 0.9490 0.9490 0.9490
3388.150769 0.9490 0.9490 0.9490 0.9499 0.9509
3394.889339 0.9510 0.9510 0.9510 0.9510 0.9510
3401.627908 0.9510 0.9510 0.9510 0.9510 0.9510
3408.366478 0.9510 0.9510 0.9510 0.9510 0.9510
3415.105047 0.9510 0.9510 0.9510 0.9517 0.9527
3421.843617 0.9537 0.9547 0.9550 0.9550 0.9550
3428.582187 0.9550 0.9550 0.9550 0.9550 0.9550
3435.320756 0.9550 0.9550 0.9550 0.9550 0.9550
3442.059326 0.9550 0.9555 0.9565 0.9570 0.9570
3448.797895 0.9570 0.9570 0.9576 0.9591 0.9600
3455.536465 0.9600 0.9600 0.9600 0.9600 0.9600
3462.275035 0.9600 0.9600 0.9600 0.9600 0.9600
3469.013604 0.9600 0.9602 0.9612 0.9620 0.9620
3475.752174 0.9622 0.9632 0.9642 0.9652 0.9662
3482.490743 0.9671 0.9680 0.9680 0.9680 0.9680
3489.229313 0.9680 0.9680 0.9680 0.9680 0.9680
3495.967882 0.9680 0.9680 0.9680 0.9680 0.9690
3502.706452 0.9700 0.9710 0.9720 0.9720 0.9720
3509.445022 0.9720 0.9720 0.9720 0.9720 0.9729
3516.183591 0.9738 0.9740 0.9740 0.9748 0.9758
3522.922161 0.9760 0.9760 0.9760 0.9760 0.9760
3529.660730 0.9760 0.9760 0.9760 0.9760 0.9760
3536.399300 0.9760 0.9760 0.9760 0.9760 0.9760
3543.137870 0.9760 0.9760 0.9760 0.9760 0.9760
3549.876439 0.9760 0.9760 0.9760 0.9760 0.9760
3556.615009 0.9760 0.9760 0.9760 0.9760 0.9760
3563.353578 0.9756 0.9746 0.9740 0.9740 0.9740
3570.092148 0.9740 0.9740 0.9740 0.9733 0.9713
3576.830717 0.9700 0.9700 0.9697 0.9687 0.9680
3583.569287 0.9680 0.9680 0.9680 0.9680 0.9680
3590.307857 0.9682 0.9692 0.9706 0.9735 0.9760
3597.046426 0.9760 0.9757 0.9738 0.9720 0.9720
3603.784996 0.9719 0.9709 0.9700 0.9700 0.9699
3610.523565 0.9679 0.9660 0.9660 0.9660 0.9650
3617.262135 0.9640 0.9650 0.9660 0.9688 0.9718
3624.000705 0.9729 0.9739 0.9749 0.9759 0.9760
3630.739274 0.9760 0.9768 0.9778 0.9780 0.9780
3637.477844 0.9792 0.9807 0.9810 0.9810 0.9810
3644.216413 0.9810 0.9810 0.9810 0.9810 0.9810
3650.954983 0.9800 0.9785 0.9780 0.9780 0.9767
3657.693552 0.9748 0.9740 0.9740 0.9746 0.9756
3664.432122 0.9760 0.9760 0.9754 0.9745 0.9735
3671.170692 0.9725 0.9710 0.9690 0.9666 0.9636
3677.909261 0.9615 0.9606 0.9594 0.9579 0.9570
3684.647831 0.9570 0.9570 0.9570 0.9575 0.9590
3691.386400 0.9600 0.9600 0.9606 0.9626 0.9643
3698.124970 0.9653 0.9660 0.9660 0.9658 0.9648
3704.863540 0.9640 0.9640 0.9636 0.9616 0.9596
3711.602109 0.9571 0.9547 0.9527 0.9510 0.9510
3718.340679 0.9512 0.9532 0.9552 0.9577 0.9600
3725.079248 0.9600 0.9599 0.9585 0.9570 0.9570
3731.817818 0.9570 0.9560 0.9550 0.9550 0.9550
3738.556388 0.9559 0.9569 0.9570 0.9570 0.9592
3745.294957 0.9617 0.9629 0.9639 0.9640 0.9640
3752.033527 0.9632 0.9622 0.9592 0.9558 0.9542
3758.772096 0.9532 0.9537 0.9547 0.9557 0.9567
3765.510666 0.9601 0.9645 0.9673 0.9693 0.9713
3772.249235 0.9733 0.9753 0.9772 0.9789 0.9804
3778.987805 0.9810 0.9810
##END=
