##TITLE=FORMALDEHYDE
##JCAMP-DX=4.24
##DATA TYPE=INFRARED SPECTRUM
##CLASS=COBLENTZ III
##ORIGIN=DOW CHEMICAL COMPANY
##OWNER=COBLENTZ SOCIETY
Collection (C) 2018 copyright by the U.S. Secretary of Commerce
on behalf of the United States of America. All rights reserved.
##DATE=1978/03/16
##CAS REGISTRY NO=50-00-0
##MOLFORM=C H2 O
##BP=-21 C
##SOURCE REFERENCE=COBLENTZ NO. 10619
##$NIST SOURCE=COBLENTZ
##$NIST IMAGE=cob10619
##SPECTROMETER/DATA SYSTEM=PERKIN-ELMER 297
##STATE=SOLUTION (UNKNOWN CONCENTRATION IN CCl4) VS. CCl4
##PATH LENGTH=0.1 CM
$$SPECTRAL DEAD REGIONS AROUND 1550, 1250, 1000, 800 CM^-^1
$$ SEE SPECTRUM NO. 10618 FOR "GAS" STATE (HEATING PARAFORMALDEHYDE)
##SAMPLING PROCEDURE=TRANSMISSION
##RESOLUTION=4
##DATA PROCESSING=DIGITIZED BY NIST FROM HARD COPY (FROM TWO SEGMENTS)
##XUNITS=1/CM
##YUNITS=TRANSMITTANCE
##XFACTOR=1.000000
##YFACTOR=1
##DELTAX=0.924501
##FIRSTX=590.139
##LASTX=4004.32
##FIRSTY=0.721
##MAXX=4004.32
##MINX=590.139
##MAXY=0.899
##MINY=0.019
##NPOINTS=3694
##XYDATA=(X++(Y..Y))
590.139000 0.7210 0.7260 0.7280 0.7280 0.7230
594.761503 0.7130 0.7090 0.7040 0.7010 0.7000
599.384007 0.6990 0.6980 0.6980 0.6980 0.6960
604.006510 0.6960 0.6960 0.6960 0.6960 0.6950
608.629013 0.6950 0.6950 0.6940 0.6930 0.6910
613.251517 0.6900 0.6890 0.6870 0.6830 0.6820
617.874020 0.6790 0.6770 0.6740 0.6720 0.6650
622.496524 0.6600 0.6580 0.6570 0.6570 0.6560
627.119027 0.6560 0.6560 0.6560 0.6570 0.6600
631.741530 0.6680 0.6760 0.6820 0.6870 0.6900
636.364034 0.7050 0.7070 0.7110 0.7260 0.7330
640.986537 0.7390 0.7460 0.7589 0.7600 0.7660
645.609040 0.7730 0.7760 0.7770 0.7790 0.7810
650.231544 0.7830 0.7860 0.7880 0.7900 0.7930
654.854047 0.7940 0.7940 0.7950 0.7970 0.7990
659.476551 0.8000 0.8010 0.8010 0.8030 0.8040
664.099054 0.8040 0.8050 0.8050 0.8050 0.8050
668.721557 0.8060 0.8060 0.8060 0.8060 0.8060
673.344061 0.8050 0.8050 0.8040 0.8040 0.8040
677.966564 0.8030 0.8010 0.8000 0.7990 0.7990
682.589067 0.7980 0.7970 0.7940 0.7930 0.7880
687.211571 0.7860 0.7860 0.7810 0.7770 0.7750
691.834074 0.7720 0.7660 0.7590 0.7510 0.7440
696.456578 0.7380 0.7330 0.7280 0.7220 0.7131
701.079081 0.7070 0.7020 0.6960 0.6900 0.6890
705.701584 0.6880 0.6820 0.6790 0.6770 0.6770
710.324088 0.6760 0.6760 0.6760 0.6770 0.6770
714.946591 0.6770 0.6770 0.6770 0.6780 0.6780
719.569094 0.6790 0.6790 0.6790 0.6800 0.6800
724.191598 0.6820 0.6820 0.6820 0.6820 0.6820
728.814101 0.6820 0.6820 0.6820 0.6820 0.6820
733.436605 0.6820 0.6820 0.6830 0.6830 0.6830
738.059108 0.6830 0.6830 0.6830 0.6830 0.6830
742.681611 0.6830 0.6840 0.6840 0.6840 0.6840
747.304115 0.6840 0.6840 0.6840 0.6840 0.6840
751.926618 0.6850 0.6850 0.6850 0.6850 0.6850
756.549121 0.6850 0.6850 0.6850 0.6850 0.6850
761.171625 0.6850 0.6850 0.6850 0.6850 0.6850
765.794128 0.6850 0.6850 0.6850 0.6850 0.6850
770.416632 0.6850 0.6850 0.6850 0.6850 0.6850
775.039135 0.6850 0.6850 0.6850 0.6850 0.6850
779.661638 0.6850 0.6850 0.6850 0.6850 0.6850
784.284142 0.6850 0.6850 0.6850 0.6850 0.6850
788.906645 0.6850 0.6850 0.6850 0.6850 0.6850
793.529148 0.6870 0.6870 0.6870 0.6870 0.6880
798.151652 0.6880 0.6880 0.6880 0.6890 0.6890
802.774155 0.6890 0.6890 0.6890 0.6890 0.6890
807.396659 0.6890 0.6890 0.6890 0.6890 0.6890
812.019162 0.6890 0.6890 0.6890 0.6890 0.6890
816.641665 0.6890 0.6890 0.6890 0.6890 0.6890
821.264169 0.6890 0.6890 0.6890 0.6890 0.6890
825.886672 0.6890 0.6890 0.6890 0.6890 0.6890
830.509175 0.6890 0.6900 0.6900 0.6910 0.6930
835.131679 0.6930 0.6940 0.6950 0.6960 0.6980
839.754182 0.7010 0.7040 0.7060 0.7070 0.7090
844.376686 0.7100 0.7110 0.7130 0.7150 0.7170
848.999189 0.7200 0.7210 0.7230 0.7240 0.7270
853.621692 0.7270 0.7280 0.7280 0.7290 0.7290
858.244196 0.7310 0.7310 0.7310 0.7310 0.7310
862.866699 0.7310 0.7310 0.7310 0.7310 0.7310
867.489202 0.7310 0.7290 0.7280 0.7280 0.7270
872.111706 0.7270 0.7270 0.7270 0.7260 0.7260
876.734209 0.7260 0.7240 0.7200 0.7170 0.7150
881.356713 0.7130 0.7110 0.7090 0.7050 0.7020
885.979216 0.6990 0.6950 0.6940 0.6720 0.6690
890.601719 0.6670 0.6500 0.6390 0.6320 0.6161
895.224223 0.6010 0.5890 0.5690 0.5480 0.5081
899.846726 0.5060 0.5030 0.4950 0.4870 0.4850
904.469229 0.4800 0.4790 0.4730 0.4710 0.4700
909.091733 0.4690 0.4680 0.4650 0.4630 0.4620
913.714236 0.4590 0.4570 0.4540 0.4510 0.4510
918.336740 0.4430 0.4370 0.4310 0.4200 0.4160
922.959243 0.4140 0.4030 0.3960 0.3880 0.3830
927.581746 0.3770 0.3600 0.3341 0.3091 0.2821
932.204250 0.2490 0.2400 0.2310 0.2310 0.2570
936.826753 0.2710 0.2830 0.3298 0.3519 0.4038
941.449256 0.4140 0.4270 0.4400 0.4540 0.4590
946.071760 0.4680 0.4740 0.4760 0.4810 0.4850
950.694263 0.4860 0.4860 0.4860 0.4860 0.4860
955.316767 0.4860 0.4850 0.4850 0.4840 0.4840
959.939270 0.4840 0.4820 0.4810 0.4810 0.4820
964.561773 0.4820 0.4820 0.4820 0.4820 0.4840
969.184277 0.4840 0.4840 0.4840 0.4840 0.4820
973.806780 0.4820 0.4820 0.4820 0.4820 0.4820
978.429283 0.4820 0.4840 0.4850 0.4850 0.4850
983.051787 0.4850 0.4850 0.4860 0.4860 0.4860
987.674290 0.4860 0.4870 0.4870 0.4860 0.4850
992.296794 0.4850 0.4850 0.4840 0.4840 0.4840
996.919297 0.4840 0.4840 0.4840 0.4850 0.4850
1001.541800 0.4860 0.4860 0.4870 0.4900 0.4910
1006.164304 0.4930 0.4950 0.4960 0.5010 0.5030
1010.786807 0.5030 0.5060 0.5080 0.5120 0.5150
1015.409310 0.5230 0.5250 0.5260 0.5350 0.5360
1020.031814 0.5390 0.5400 0.5400 0.5410 0.5410
1024.654317 0.5420 0.5420 0.5440 0.5440 0.5470
1029.276821 0.5510 0.5530 0.5530 0.5520 0.5510
1033.899324 0.5500 0.5480 0.5390 0.5310 0.5250
1038.521827 0.5250 0.5360 0.5559 0.5680 0.5750
1043.144331 0.5810 0.5880 0.5910 0.5950 0.5960
1047.766834 0.5990 0.5990 0.6000 0.6000 0.6000
1052.389337 0.6010 0.6010 0.6010 0.6010 0.6010
1057.011841 0.6010 0.6010 0.6010 0.6010 0.6010
1061.634344 0.6010 0.6020 0.6020 0.6020 0.6020
1066.256848 0.6020 0.6020 0.6020 0.6020 0.6020
1070.879351 0.6020 0.6020 0.6010 0.6010 0.6000
1075.501854 0.5990 0.5960 0.5950 0.5900 0.5840
1080.124358 0.5780 0.5680 0.5630 0.5520 0.5460
1084.746861 0.5390 0.5260 0.5031 0.4871 0.4621
1089.369364 0.4360 0.4110 0.3990 0.3870 0.3860
1093.991868 0.3870 0.3880 0.3890 0.3920 0.4020
1098.614371 0.4100 0.4180 0.4240 0.4300 0.4350
1103.236875 0.4360 0.4370 0.4380 0.4430 0.4460
1107.859378 0.4480 0.4490 0.4510 0.4580 0.4600
1112.481881 0.4640 0.4650 0.4660 0.4680 0.4690
1117.104385 0.4710 0.4740 0.4770 0.4770 0.4760
1121.726888 0.4760 0.4730 0.4710 0.4700 0.4680
1126.349391 0.4650 0.4640 0.4590 0.4520 0.4440
1130.971895 0.4290 0.4100 0.4020 0.3970 0.3920
1135.594398 0.3870 0.3870 0.3910 0.4070 0.4410
1140.216902 0.4620 0.4760 0.4959 0.5139 0.5190
1144.839405 0.5250 0.5290 0.5360 0.5370 0.5510
1149.461908 0.5570 0.5750 0.5919 0.6099 0.6140
1154.084412 0.6160 0.6170 0.6230 0.6340 0.6430
1158.706915 0.6490 0.6510 0.6550 0.6610 0.6670
1163.329418 0.6680 0.6690 0.6710 0.6730 0.6740
1167.951922 0.6760 0.6770 0.6850 0.6910 0.7059
1172.574425 0.7090 0.7110 0.7170 0.7220 0.7260
1177.196929 0.7270 0.7320 0.7400 0.7430 0.7450
1181.819432 0.7460 0.7510 0.7540 0.7550 0.7560
1186.441935 0.7570 0.7570 0.7570 0.7570 0.7570
1191.064439 0.7570 0.7550 0.7540 0.7530 0.7500
1195.686942 0.7480 0.7440 0.7420 0.7400 0.7370
1200.309445 0.7320 0.7290 0.7260 0.7170 0.7130
1204.931949 0.7110 0.7090 0.7070 0.7040 0.6990
1209.554452 0.6930 0.6900 0.6850 0.6820 0.6800
1214.176956 0.6780 0.6770 0.6740 0.6720 0.6710
1218.799459 0.6690 0.6680 0.6670 0.6620 0.6600
1223.421962 0.6580 0.6500 0.6460 0.6450 0.6430
1228.044466 0.6400 0.6340 0.6300 0.6240 0.6190
1232.666969 0.6160 0.6140 0.6130 0.6130 0.6140
1237.289472 0.6160 0.6170 0.6220 0.6320 0.6380
1241.911976 0.6440 0.6560 0.6600 0.6620 0.6670
1246.534479 0.6720 0.6730 0.6760 0.6770 0.6790
1251.156983 0.6820 0.6870 0.6890 0.6900 0.6910
1255.779486 0.6930 0.6950 0.7020 0.7060 0.7070
1260.401989 0.7100 0.7120 0.7150 0.7170 0.7230
1265.024493 0.7240 0.7260 0.7290 0.7320 0.7370
1269.646996 0.7420 0.7450 0.7490 0.7530 0.7530
1274.269499 0.7550 0.7560 0.7570 0.7570 0.7570
1278.892003 0.7560 0.7560 0.7550 0.7550 0.7530
1283.514506 0.7530 0.7540 0.7570 0.7600 0.7700
1288.137010 0.7780 0.7870 0.7890 0.7950 0.7980
1292.759513 0.8000 0.8050 0.8090 0.8100 0.8110
1297.382016 0.8120 0.8140 0.8150 0.8170 0.8190
1302.004520 0.8200 0.8210 0.8220 0.8230 0.8260
1306.627023 0.8270 0.8280 0.8280 0.8300 0.8300
1311.249526 0.8310 0.8310 0.8310 0.8320 0.8320
1315.872030 0.8330 0.8330 0.8340 0.8340 0.8360
1320.494533 0.8360 0.8360 0.8370 0.8370 0.8380
1325.117037 0.8410 0.8410 0.8430 0.8440 0.8450
1329.739540 0.8470 0.8480 0.8490 0.8500 0.8520
1334.362043 0.8520 0.8530 0.8530 0.8540 0.8540
1338.984547 0.8540 0.8540 0.8540 0.8540 0.8540
1343.607050 0.8540 0.8540 0.8540 0.8530 0.8530
1348.229553 0.8530 0.8530 0.8500 0.8500 0.8500
1352.852057 0.8500 0.8490 0.8490 0.8490 0.8480
1357.474560 0.8480 0.8470 0.8470 0.8470 0.8470
1362.097064 0.8470 0.8480 0.8490 0.8490 0.8500
1366.719567 0.8500 0.8500 0.8500 0.8520 0.8520
1371.342070 0.8520 0.8520 0.8520 0.8520 0.8520
1375.964574 0.8500 0.8500 0.8490 0.8480 0.8410
1380.587077 0.8390 0.8360 0.8300 0.8230 0.8200
1385.209580 0.8150 0.8140 0.8150 0.8170 0.8220
1389.832084 0.8260 0.8300 0.8300 0.8310 0.8310
1394.454587 0.8320 0.8320 0.8320 0.8320 0.8320
1399.077091 0.8320 0.8320 0.8330 0.8330 0.8330
1403.699594 0.8330 0.8330 0.8320 0.8320 0.8320
1408.322097 0.8320 0.8320 0.8330 0.8330 0.8330
1412.944601 0.8330 0.8330 0.8320 0.8320 0.8320
1417.567104 0.8320 0.8320 0.8310 0.8310 0.8260
1422.189607 0.8220 0.8210 0.8200 0.8190 0.8190
1426.812111 0.8170 0.8170 0.8150 0.8150 0.8140
1431.434614 0.8140 0.8120 0.8120 0.8120 0.8120
1436.057118 0.8120 0.8120 0.8140 0.8140 0.8140
1440.679621 0.8150 0.8150 0.8140 0.8140 0.8140
1445.302124 0.8140 0.8120 0.8120 0.8100 0.8080
1449.924628 0.8050 0.8040 0.8010 0.8010 0.8000
1454.547131 0.7990 0.7970 0.7970 0.7950 0.7930
1459.169634 0.7860 0.7810 0.7790 0.7780 0.7760
1463.792138 0.7760 0.7750 0.7670 0.7600 0.7540
1468.414641 0.7400 0.7260 0.7230 0.7200 0.7160
1473.037145 0.7120 0.7090 0.7070 0.7070 0.7060
1477.659648 0.7000 0.6990 0.6960 0.6910 0.6790
1482.282151 0.6660 0.6570 0.6450 0.6320 0.6161
1486.904655 0.6009 0.5630 0.5450 0.5260 0.4810
1491.527158 0.4431 0.4081 0.3990 0.3890 0.3741
1496.149661 0.3640 0.3640 0.3710 0.4290 0.4580
1500.772165 0.5089 0.5120 0.5639 0.5899 0.6169
1505.394668 0.6330 0.6520 0.6740 0.6940 0.7010
1510.017172 0.7060 0.7110 0.7150 0.7230 0.7240
1514.639675 0.7320 0.7390 0.7430 0.7450 0.7510
1519.262178 0.7540 0.7550 0.7560 0.7570 0.7590
1523.884682 0.7590 0.7600 0.7600 0.7620 0.7620
1528.507185 0.7640 0.7650 0.7650 0.7660 0.7660
1533.129688 0.7660 0.7660 0.7660 0.7660 0.7660
1537.752192 0.7660 0.7660 0.7670 0.7670 0.7670
1542.374695 0.7670 0.7670 0.7670 0.7670 0.7670
1546.997199 0.7670 0.7670 0.7670 0.7670 0.7670
1551.619702 0.7670 0.7670 0.7670 0.7670 0.7660
1556.242205 0.7660 0.7660 0.7660 0.7660 0.7660
1560.864709 0.7660 0.7660 0.7660 0.7660 0.7660
1565.487212 0.7660 0.7660 0.7660 0.7660 0.7660
1570.109715 0.7670 0.7670 0.7670 0.7670 0.7670
1574.732219 0.7670 0.7670 0.7670 0.7670 0.7680
1579.354722 0.7700 0.7700 0.7700 0.7710 0.7750
1583.977226 0.7760 0.7770 0.7770 0.7780 0.7780
1588.599729 0.7810 0.7820 0.7840 0.7870 0.7880
1593.222232 0.7900 0.7920 0.7930 0.7930 0.7940
1597.844736 0.7950 0.7980 0.8030 0.8090 0.8120
1602.467239 0.8120 0.8170 0.8210 0.8250 0.8270
1607.089742 0.8300 0.8310 0.8330 0.8370 0.8410
1611.712246 0.8420 0.8440 0.8500 0.8520 0.8530
1616.334749 0.8540 0.8540 0.8550 0.8550 0.8560
1620.957253 0.8580 0.8590 0.8600 0.8600 0.8610
1625.579756 0.8610 0.8610 0.8630 0.8640 0.8640
1630.202259 0.8640 0.8650 0.8650 0.8650 0.8660
1634.824763 0.8670 0.8700 0.8700 0.8690 0.8660
1639.447266 0.8640 0.8610 0.8590 0.8560 0.8540
1644.069769 0.8530 0.8500 0.8480 0.8410 0.8370
1648.692273 0.8340 0.8310 0.8280 0.8250 0.8210
1653.314776 0.8160 0.8150 0.8140 0.8140 0.8110
1657.937280 0.8080 0.8050 0.8010 0.8000 0.7980
1662.559783 0.7940 0.7930 0.7870 0.7860 0.7830
1667.182286 0.7780 0.7760 0.7710 0.7670 0.7650
1671.804790 0.7620 0.7590 0.7590 0.7490 0.7430
1676.427293 0.7380 0.7320 0.7270 0.7230 0.7230
1681.049796 0.7160 0.7100 0.7090 0.7020 0.6950
1685.672300 0.6930 0.6900 0.6850 0.6800 0.6760
1690.294803 0.6630 0.6600 0.6490 0.6460 0.6360
1694.917307 0.6230 0.6120 0.6030 0.6020 0.5970
1699.539810 0.5920 0.5860 0.5830 0.5810 0.5780
1704.162313 0.5750 0.5660 0.5610 0.5500 0.5390
1708.784817 0.5360 0.5140 0.5070 0.4930 0.4870
1713.407320 0.4770 0.4570 0.4351 0.4210 0.4021
1718.029823 0.3809 0.3500 0.3210 0.3140 0.2930
1722.652327 0.2640 0.2420 0.2201 0.1821 0.1491
1727.274830 0.1070 0.0900 0.0730 0.0530 0.0230
1731.897334 0.0190 0.0190 0.0240 0.0250 0.0250
1736.519837 0.0260 0.0290 0.0390 0.0520 0.1170
1741.142340 0.1240 0.1300 0.1579 0.1819 0.2089
1745.764844 0.2241 0.2530 0.2830 0.3100 0.3430
1750.387347 0.3630 0.3740 0.3800 0.3870 0.4089
1755.009850 0.4190 0.4320 0.4370 0.4590 0.4650
1759.632354 0.4840 0.4970 0.5020 0.5130 0.5140
1764.254857 0.5250 0.5300 0.5370 0.5530 0.5590
1768.877361 0.5640 0.5700 0.5790 0.5890 0.5940
1773.499864 0.5990 0.6020 0.6030 0.6070 0.6110
1778.122367 0.6190 0.6300 0.6350 0.6430 0.6450
1782.744871 0.6460 0.6510 0.6550 0.6620 0.6680
1787.367374 0.6720 0.6770 0.6830 0.6900 0.6960
1791.989877 0.7040 0.7070 0.7100 0.7160 0.7180
1796.612381 0.7220 0.7240 0.7280 0.7370 0.7450
1801.234884 0.7530 0.7530 0.7550 0.7570 0.7600
1805.857388 0.7620 0.7660 0.7700 0.7720 0.7810
1810.479891 0.7840 0.7840 0.7860 0.7880 0.7920
1815.102394 0.7930 0.7940 0.7950 0.7980 0.8010
1819.724898 0.8040 0.8050 0.8060 0.8090 0.8120
1824.347401 0.8140 0.8160 0.8170 0.8200 0.8220
1828.969904 0.8230 0.8260 0.8280 0.8300 0.8310
1833.592408 0.8310 0.8320 0.8340 0.8370 0.8380
1838.214911 0.8410 0.8420 0.8430 0.8440 0.8450
1842.837415 0.8480 0.8500 0.8500 0.8520 0.8520
1847.459918 0.8530 0.8530 0.8540 0.8550 0.8550
1852.082421 0.8550 0.8560 0.8580 0.8590 0.8590
1856.704925 0.8600 0.8600 0.8610 0.8610 0.8630
1861.327428 0.8630 0.8630 0.8640 0.8650 0.8660
1865.949931 0.8660 0.8670 0.8670 0.8690 0.8690
1870.572435 0.8700 0.8700 0.8700 0.8710 0.8710
1875.194938 0.8710 0.8710 0.8710 0.8710 0.8710
1879.817442 0.8720 0.8720 0.8720 0.8720 0.8740
1884.439945 0.8750 0.8760 0.8760 0.8760 0.8760
1889.062448 0.8770 0.8800 0.8800 0.8800 0.8800
1893.684952 0.8800 0.8800 0.8810 0.8810 0.8810
1898.307455 0.8810 0.8820 0.8820 0.8820 0.8820
1902.929958 0.8820 0.8820 0.8820 0.8820 0.8830
1907.552462 0.8830 0.8830 0.8850 0.8850 0.8850
1912.174965 0.8850 0.8850 0.8850 0.8850 0.8850
1916.797469 0.8860 0.8860 0.8860 0.8860 0.8860
1921.419972 0.8860 0.8860 0.8860 0.8860 0.8860
1926.042475 0.8860 0.8860 0.8870 0.8870 0.8870
1930.664979 0.8870 0.8870 0.8870 0.8870 0.8870
1935.287482 0.8870 0.8870 0.8870 0.8870 0.8870
1939.909985 0.8870 0.8870 0.8870 0.8870 0.8870
1944.532489 0.8870 0.8870 0.8860 0.8860 0.8860
1949.154992 0.8860 0.8860 0.8860 0.8850 0.8850
1953.777496 0.8850 0.8850 0.8850 0.8850 0.8850
1958.399999 0.8850 0.8850 0.8850 0.8850 0.8850
1963.022502 0.8850 0.8850 0.8850 0.8850 0.8850
1967.645006 0.8850 0.8850 0.8850 0.8850 0.8850
1972.267509 0.8850 0.8850 0.8850 0.8850 0.8850
1976.890012 0.8850 0.8850 0.8860 0.8860 0.8860
1981.512516 0.8860 0.8860 0.8860 0.8860 0.8860
1986.135019 0.8860 0.8860 0.8870 0.8870 0.8870
1990.757523 0.8870 0.8870 0.8870 0.8870 0.8870
1995.380026 0.8870 0.8870 0.8870 0.8870 0.8870
2000.002529 0.8870 0.8870 0.8870 0.8870 0.8870
2004.625033 0.8870 0.8870 0.8870 0.8870 0.8870
2009.247536 0.8870 0.8870 0.8870 0.8870 0.8870
2013.870039 0.8870 0.8870 0.8875 0.8880 0.8880
2018.492543 0.8880 0.8880 0.8880 0.8875 0.8870
2023.115046 0.8870 0.8870 0.8870 0.8870 0.8870
2027.737550 0.8870 0.8870 0.8870 0.8870 0.8870
2032.360053 0.8870 0.8870 0.8874 0.8879 0.8884
2036.982556 0.8889 0.8890 0.8890 0.8890 0.8890
2041.605060 0.8890 0.8890 0.8890 0.8890 0.8899
2046.227563 0.8909 0.8910 0.8910 0.8910 0.8910
2050.850066 0.8910 0.8910 0.8914 0.8919 0.8920
2055.472570 0.8920 0.8924 0.8929 0.8930 0.8930
2060.095073 0.8930 0.8930 0.8934 0.8939 0.8952
2064.717577 0.8967 0.8974 0.8979 0.8980 0.8980
2069.340080 0.8984 0.8989 0.8990 0.8990 0.8990
2073.962583 0.8990 0.8986 0.8981 0.8976 0.8971
2078.585087 0.8966 0.8961 0.8960 0.8960 0.8960
2083.207590 0.8960 0.8953 0.8943 0.8940 0.8940
2087.830093 0.8940 0.8940 0.8940 0.8940 0.8940
2092.452597 0.8940 0.8940 0.8940 0.8940 0.8940
2097.075100 0.8940 0.8940 0.8947 0.8957 0.8960
2101.697604 0.8960 0.8960 0.8960 0.8960 0.8960
2106.320107 0.8960 0.8960 0.8960 0.8960 0.8960
2110.942610 0.8960 0.8960 0.8960 0.8960 0.8960
2115.565114 0.8960 0.8960 0.8960 0.8960 0.8960
2120.187617 0.8960 0.8960 0.8960 0.8960 0.8960
2124.810120 0.8954 0.8944 0.8940 0.8940 0.8946
2129.432624 0.8956 0.8960 0.8960 0.8960 0.8960
2134.055127 0.8960 0.8960 0.8960 0.8960 0.8963
2138.677631 0.8968 0.8970 0.8970 0.8970 0.8970
2143.300134 0.8970 0.8970 0.8970 0.8970 0.8970
2147.922637 0.8970 0.8970 0.8970 0.8970 0.8970
2152.545141 0.8967 0.8962 0.8960 0.8960 0.8960
2157.167644 0.8960 0.8960 0.8960 0.8960 0.8960
2161.790147 0.8960 0.8960 0.8960 0.8960 0.8960
2166.412651 0.8960 0.8960 0.8960 0.8960 0.8960
2171.035154 0.8960 0.8960 0.8960 0.8960 0.8960
2175.657658 0.8960 0.8960 0.8960 0.8955 0.8945
2180.280161 0.8940 0.8940 0.8940 0.8940 0.8940
2184.902664 0.8940 0.8940 0.8940 0.8944 0.8954
2189.525168 0.8960 0.8960 0.8960 0.8960 0.8960
2194.147671 0.8960 0.8960 0.8960 0.8960 0.8960
2198.770174 0.8960 0.8960 0.8960 0.8960 0.8960
2203.392678 0.8960 0.8960 0.8960 0.8960 0.8960
2208.015181 0.8960 0.8960 0.8960 0.8960 0.8956
2212.637685 0.8946 0.8940 0.8940 0.8940 0.8940
2217.260188 0.8940 0.8940 0.8940 0.8940 0.8940
2221.882691 0.8940 0.8938 0.8933 0.8930 0.8930
2226.505195 0.8930 0.8930 0.8930 0.8930 0.8930
2231.127698 0.8930 0.8930 0.8930 0.8929 0.8924
2235.750201 0.8920 0.8920 0.8920 0.8920 0.8919
2240.372705 0.8914 0.8910 0.8910 0.8910 0.8910
2244.995208 0.8907 0.8897 0.8890 0.8890 0.8890
2249.617712 0.8890 0.8890 0.8890 0.8890 0.8890
2254.240215 0.8889 0.8884 0.8880 0.8880 0.8880
2258.862718 0.8880 0.8879 0.8874 0.8870 0.8870
2263.485222 0.8870 0.8870 0.8869 0.8864 0.8859
2268.107725 0.8854 0.8848 0.8838 0.8830 0.8830
2272.730228 0.8829 0.8824 0.8820 0.8820 0.8820
2277.352732 0.8820 0.8820 0.8820 0.8819 0.8814
2281.975235 0.8810 0.8810 0.8810 0.8810 0.8810
2286.597739 0.8810 0.8810 0.8810 0.8809 0.8804
2291.220242 0.8800 0.8800 0.8800 0.8800 0.8800
2295.842745 0.8800 0.8800 0.8800 0.8801 0.8806
2300.465249 0.8810 0.8810 0.8810 0.8810 0.8810
2305.087752 0.8810 0.8810 0.8815 0.8820 0.8820
2309.710255 0.8820 0.8820 0.8820 0.8825 0.8830
2314.332759 0.8830 0.8830 0.8830 0.8830 0.8830
2318.955262 0.8830 0.8840 0.8850 0.8855 0.8860
2323.577766 0.8860 0.8860 0.8860 0.8860 0.8860
2328.200269 0.8860 0.8860 0.8860 0.8860 0.8860
2332.822772 0.8860 0.8860 0.8860 0.8860 0.8860
2337.445276 0.8860 0.8860 0.8860 0.8860 0.8860
2342.067779 0.8860 0.8860 0.8860 0.8860 0.8860
2346.690282 0.8860 0.8860 0.8860 0.8860 0.8860
2351.312786 0.8865 0.8870 0.8870 0.8870 0.8870
2355.935289 0.8870 0.8870 0.8870 0.8870 0.8870
2360.557793 0.8870 0.8870 0.8870 0.8870 0.8870
2365.180296 0.8870 0.8870 0.8870 0.8870 0.8870
2369.802799 0.8870 0.8870 0.8870 0.8870 0.8870
2374.425303 0.8870 0.8870 0.8870 0.8874 0.8879
2379.047806 0.8880 0.8880 0.8880 0.8880 0.8880
2383.670309 0.8880 0.8880 0.8880 0.8880 0.8880
2388.292813 0.8880 0.8880 0.8880 0.8880 0.8880
2392.915316 0.8880 0.8880 0.8880 0.8880 0.8880
2397.537820 0.8880 0.8880 0.8880 0.8880 0.8880
2402.160323 0.8880 0.8880 0.8880 0.8880 0.8880
2406.782826 0.8880 0.8880 0.8880 0.8880 0.8880
2411.405330 0.8880 0.8876 0.8871 0.8870 0.8870
2416.027833 0.8870 0.8870 0.8870 0.8870 0.8866
2420.650336 0.8861 0.8860 0.8860 0.8860 0.8860
2425.272840 0.8860 0.8860 0.8860 0.8860 0.8860
2429.895343 0.8860 0.8860 0.8860 0.8860 0.8860
2434.517847 0.8860 0.8860 0.8860 0.8860 0.8860
2439.140350 0.8860 0.8857 0.8852 0.8850 0.8850
2443.762853 0.8850 0.8850 0.8850 0.8850 0.8850
2448.385357 0.8850 0.8850 0.8850 0.8850 0.8850
2453.007860 0.8850 0.8850 0.8850 0.8850 0.8844
2457.630363 0.8834 0.8830 0.8830 0.8827 0.8822
2462.252867 0.8820 0.8820 0.8820 0.8820 0.8820
2466.875370 0.8820 0.8817 0.8812 0.8807 0.8802
2471.497874 0.8800 0.8800 0.8800 0.8800 0.8794
2476.120377 0.8784 0.8777 0.8772 0.8767 0.8762
2480.742880 0.8760 0.8760 0.8760 0.8760 0.8760
2485.365384 0.8760 0.8760 0.8760 0.8760 0.8760
2489.987887 0.8760 0.8760 0.8760 0.8760 0.8760
2494.610390 0.8760 0.8760 0.8760 0.8762 0.8767
2499.232894 0.8770 0.8770 0.8770 0.8770 0.8768
2503.855397 0.8763 0.8760 0.8760 0.8760 0.8760
2508.477901 0.8760 0.8760 0.8760 0.8760 0.8760
2513.100404 0.8760 0.8760 0.8760 0.8760 0.8760
2517.722907 0.8762 0.8767 0.8770 0.8770 0.8770
2522.345411 0.8770 0.8770 0.8770 0.8770 0.8770
2526.967914 0.8770 0.8770 0.8772 0.8777 0.8780
2531.590417 0.8780 0.8780 0.8780 0.8780 0.8780
2536.212921 0.8780 0.8780 0.8778 0.8773 0.8770
2540.835424 0.8770 0.8770 0.8770 0.8768 0.8763
2545.457928 0.8760 0.8760 0.8760 0.8760 0.8760
2550.080431 0.8760 0.8760 0.8760 0.8758 0.8753
2554.702934 0.8750 0.8750 0.8748 0.8743 0.8740
2559.325438 0.8740 0.8737 0.8727 0.8720 0.8720
2563.947941 0.8720 0.8720 0.8723 0.8733 0.8740
2568.570444 0.8740 0.8740 0.8740 0.8740 0.8740
2573.192948 0.8740 0.8740 0.8740 0.8740 0.8737
2577.815451 0.8727 0.8720 0.8720 0.8720 0.8720
2582.437955 0.8720 0.8720 0.8720 0.8720 0.8720
2587.060458 0.8720 0.8719 0.8714 0.8710 0.8710
2591.682961 0.8710 0.8710 0.8710 0.8710 0.8709
2596.305465 0.8704 0.8699 0.8694 0.8690 0.8690
2600.927968 0.8690 0.8690 0.8688 0.8678 0.8670
2605.550471 0.8670 0.8670 0.8670 0.8669 0.8664
2610.172975 0.8660 0.8660 0.8659 0.8654 0.8649
2614.795478 0.8644 0.8639 0.8634 0.8629 0.8619
2619.417982 0.8609 0.8604 0.8599 0.8594 0.8590
2624.040485 0.8590 0.8589 0.8584 0.8580 0.8580
2628.662988 0.8579 0.8569 0.8559 0.8554 0.8550
2633.285492 0.8550 0.8549 0.8539 0.8530 0.8525
2637.907995 0.8519 0.8509 0.8499 0.8484 0.8469
2642.530498 0.8449 0.8430 0.8425 0.8420 0.8415
2647.153002 0.8410 0.8399 0.8390 0.8385 0.8380
2651.775505 0.8375 0.8370 0.8370 0.8369 0.8355
2656.398009 0.8340 0.8325 0.8309 0.8264 0.8220
2661.020512 0.8210 0.8200 0.8195 0.8190 0.8155
2665.643015 0.8120 0.8090 0.8060 0.8050 0.8040
2670.265519 0.8020 0.8000 0.7985 0.7970 0.7931
2674.888022 0.7891 0.7875 0.7861 0.7822 0.7782
2679.510525 0.7766 0.7751 0.7712 0.7672 0.7656
2684.133029 0.7641 0.7616 0.7591 0.7515 0.7435
2688.755532 0.7383 0.7333 0.7298 0.7263 0.7237
2693.378036 0.7212 0.7114 0.7010 0.6995 0.6990
2698.000539 0.6986 0.6981 0.6909 0.6829 0.6732
2702.623042 0.6632 0.6616 0.6611 0.6543 0.6469
2707.245546 0.6403 0.6338 0.6317 0.6302 0.6274
2711.868049 0.6244 0.6231 0.6221 0.6216 0.6211
2716.490552 0.6202 0.6192 0.6190 0.6190 0.6186
2721.113056 0.6181 0.6176 0.6171 0.6170 0.6170
2725.735559 0.6166 0.6161 0.6152 0.6142 0.6095
2730.358062 0.6041 0.6022 0.6012 0.5986 0.5956
2734.980566 0.5922 0.5888 0.5841 0.5791 0.5722
2739.603069 0.5647 0.5603 0.5568 0.5537 0.5507
2744.225573 0.5485 0.5465 0.5441 0.5416 0.5353
2748.848076 0.5279 0.5204 0.5129 0.5073 0.5023
2753.470579 0.4962 0.4898 0.4677 0.4398 0.4302
2758.093083 0.4277 0.4238 0.4193 0.4126 0.4051
2762.715586 0.3977 0.3902 0.3792 0.3667 0.3522
2767.338089 0.3367 0.3175 0.2966 0.2804 0.2665
2771.960593 0.2556 0.2461 0.2363 0.2263 0.2151
2776.583096 0.2031 0.1779 0.1457 0.1280 0.1176
2781.205600 0.1074 0.0975 0.0940 0.0940 0.1001
2785.828103 0.1096 0.1165 0.1220 0.1293 0.1378
2790.450606 0.1472 0.1572 0.1659 0.1739 0.1812
2795.073110 0.1882 0.2103 0.2425 0.2672 0.2871
2799.695613 0.2959 0.2974 0.3034 0.3123 0.3225
2804.318116 0.3334 0.3412 0.3467 0.3524 0.3584
2808.940620 0.3624 0.3649 0.3677 0.3707 0.3737
2813.563123 0.3766 0.3785 0.3796 0.3800 0.3800
2818.185627 0.3803 0.3808 0.3810 0.3810 0.3802
2822.808130 0.3787 0.3764 0.3734 0.3712 0.3697
2827.430633 0.3647 0.3562 0.3507 0.3483 0.3460
2832.053137 0.3440 0.3391 0.3310 0.3258 0.3233
2836.675640 0.3168 0.3064 0.2978 0.2914 0.2842
2841.298143 0.2762 0.2711 0.2691 0.2664 0.2629
2845.920647 0.2585 0.2530 0.2498 0.2493 0.2490
2850.543150 0.2490 0.2492 0.2497 0.2502 0.2507
2855.165654 0.2519 0.2539 0.2586 0.2671 0.2752
2859.788157 0.2826 0.2891 0.2941 0.2984 0.3019
2864.410660 0.3064 0.3124 0.3191 0.3271 0.3351
2869.033164 0.3430 0.3503 0.3563 0.3629 0.3704
2873.655667 0.3769 0.3819 0.3912 0.4076 0.4200
2878.278170 0.4255 0.4304 0.4344 0.4382 0.4417
2882.900674 0.4473 0.4567 0.4640 0.4670 0.4708
2887.523177 0.4763 0.4819 0.4880 0.4937 0.4986
2892.145681 0.5036 0.5086 0.5125 0.5140 0.5166
2896.768184 0.5215 0.5288 0.5412 0.5503 0.5513
2901.390687 0.5534 0.5584 0.5626 0.5646 0.5663
2906.013191 0.5673 0.5683 0.5693 0.5707 0.5732
2910.635694 0.5755 0.5775 0.5791 0.5796 0.5801
2915.258197 0.5806 0.5812 0.5822 0.5837 0.5867
2919.880701 0.5902 0.5951 0.5993 0.6008 0.6021
2924.503204 0.6026 0.6032 0.6042 0.6062 0.6117
2929.125708 0.6173 0.6233 0.6282 0.6292 0.6304
2933.748211 0.6324 0.6347 0.6382 0.6417 0.6457
2938.370714 0.6493 0.6508 0.6522 0.6532 0.6542
2942.993218 0.6552 0.6560 0.6560 0.6560 0.6560
2947.615721 0.6560 0.6560 0.6559 0.6554 0.6549
2952.238224 0.6544 0.6538 0.6523 0.6510 0.6510
2956.860728 0.6509 0.6499 0.6488 0.6473 0.6459
2961.483231 0.6449 0.6440 0.6440 0.6437 0.6407
2966.105735 0.6378 0.6358 0.6339 0.6329 0.6316
2970.728238 0.6271 0.6229 0.6219 0.6207 0.6173
2975.350741 0.6136 0.6076 0.6018 0.5988 0.5958
2979.973245 0.5918 0.5878 0.5833 0.5789 0.5779
2984.595748 0.5769 0.5754 0.5740 0.5735 0.5730
2989.218251 0.5725 0.5720 0.5710 0.5700 0.5710
2993.840755 0.5721 0.5765 0.5810 0.5865 0.5920
2998.463258 0.5994 0.6069 0.6145 0.6220 0.6270
3003.085762 0.6320 0.6503 0.6687 0.6715 0.6739
3007.708265 0.6760 0.6779 0.6891 0.7006 0.7048
3012.330768 0.7088 0.7119 0.7148 0.7202 0.7257
3016.953272 0.7326 0.7395 0.7428 0.7458 0.7521
3021.575775 0.7586 0.7595 0.7600 0.7609 0.7619
3026.198278 0.7643 0.7668 0.7706 0.7746 0.7755
3030.820782 0.7760 0.7773 0.7788 0.7812 0.7837
3035.443285 0.7849 0.7859 0.7886 0.7917 0.7924
3040.065789 0.7929 0.7934 0.7939 0.7944 0.7949
3044.688292 0.7963 0.7978 0.7984 0.7989 0.7998
3049.310795 0.8008 0.8023 0.8038 0.8044 0.8049
3053.933299 0.8054 0.8059 0.8077 0.8097 0.8104
3058.555802 0.8109 0.8114 0.8119 0.8136 0.8156
3063.178305 0.8164 0.8169 0.8178 0.8188 0.8194
3067.800809 0.8199 0.8204 0.8209 0.8210 0.8210
3072.423312 0.8210 0.8210 0.8214 0.8219 0.8224
3077.045816 0.8229 0.8242 0.8256 0.8264 0.8269
3081.668319 0.8270 0.8270 0.8274 0.8279 0.8280
3086.290822 0.8280 0.8287 0.8297 0.8300 0.8300
3090.913326 0.8300 0.8300 0.8304 0.8309 0.8310
3095.535829 0.8310 0.8310 0.8310 0.8310 0.8310
3100.158332 0.8313 0.8318 0.8320 0.8320 0.8320
3104.780836 0.8320 0.8320 0.8320 0.8320 0.8320
3109.403339 0.8320 0.8320 0.8320 0.8320 0.8320
3114.025843 0.8320 0.8320 0.8320 0.8320 0.8320
3118.648346 0.8320 0.8320 0.8320 0.8320 0.8320
3123.270849 0.8320 0.8320 0.8320 0.8317 0.8312
3127.893353 0.8310 0.8310 0.8310 0.8310 0.8310
3132.515856 0.8310 0.8307 0.8302 0.8300 0.8300
3137.138359 0.8300 0.8300 0.8300 0.8300 0.8300
3141.760863 0.8300 0.8300 0.8300 0.8294 0.8284
3146.383366 0.8280 0.8280 0.8280 0.8280 0.8280
3151.005870 0.8280 0.8280 0.8280 0.8280 0.8280
3155.628373 0.8277 0.8272 0.8270 0.8270 0.8267
3160.250876 0.8262 0.8260 0.8260 0.8260 0.8260
3164.873380 0.8260 0.8260 0.8260 0.8260 0.8260
3169.495883 0.8260 0.8262 0.8267 0.8270 0.8270
3174.118386 0.8272 0.8277 0.8280 0.8280 0.8280
3178.740890 0.8280 0.8285 0.8295 0.8300 0.8300
3183.363393 0.8300 0.8300 0.8302 0.8307 0.8310
3187.985897 0.8310 0.8310 0.8310 0.8312 0.8317
3192.608400 0.8320 0.8320 0.8320 0.8320 0.8320
3197.230903 0.8320 0.8320 0.8320 0.8322 0.8327
3201.853407 0.8330 0.8330 0.8330 0.8330 0.8332
3206.475910 0.8337 0.8340 0.8340 0.8340 0.8340
3211.098413 0.8340 0.8340 0.8340 0.8340 0.8340
3215.720917 0.8340 0.8340 0.8340 0.8343 0.8353
3220.343420 0.8360 0.8360 0.8360 0.8360 0.8360
3224.965924 0.8360 0.8360 0.8360 0.8360 0.8360
3229.588427 0.8360 0.8360 0.8360 0.8360 0.8360
3234.210930 0.8360 0.8360 0.8360 0.8360 0.8360
3238.833434 0.8360 0.8360 0.8360 0.8360 0.8360
3243.455937 0.8360 0.8360 0.8360 0.8360 0.8360
3248.078440 0.8360 0.8360 0.8360 0.8360 0.8360
3252.700944 0.8360 0.8360 0.8360 0.8360 0.8360
3257.323447 0.8360 0.8360 0.8358 0.8348 0.8339
3261.945951 0.8334 0.8330 0.8330 0.8330 0.8330
3266.568454 0.8329 0.8324 0.8320 0.8320 0.8319
3271.190957 0.8314 0.8310 0.8310 0.8309 0.8304
3275.813461 0.8300 0.8300 0.8300 0.8300 0.8298
3280.435964 0.8288 0.8278 0.8268 0.8258 0.8243
3285.058467 0.8229 0.8224 0.8220 0.8220 0.8219
3289.680971 0.8214 0.8209 0.8204 0.8200 0.8200
3294.303474 0.8200 0.8200 0.8200 0.8200 0.8200
3298.925978 0.8200 0.8199 0.8195 0.8189 0.8179
3303.548481 0.8170 0.8170 0.8170 0.8170 0.8170
3308.170984 0.8170 0.8170 0.8170 0.8170 0.8170
3312.793488 0.8170 0.8170 0.8170 0.8170 0.8170
3317.415991 0.8170 0.8170 0.8170 0.8170 0.8170
3322.038494 0.8170 0.8180 0.8190 0.8195 0.8200
3326.660998 0.8200 0.8200 0.8200 0.8200 0.8205
3331.283501 0.8210 0.8210 0.8210 0.8215 0.8220
3335.906005 0.8225 0.8230 0.8230 0.8230 0.8240
3340.528508 0.8250 0.8255 0.8260 0.8260 0.8260
3345.151011 0.8265 0.8270 0.8270 0.8270 0.8270
3349.773515 0.8270 0.8270 0.8270 0.8275 0.8280
3354.396018 0.8280 0.8280 0.8280 0.8280 0.8280
3359.018521 0.8280 0.8289 0.8299 0.8300 0.8300
3363.641025 0.8300 0.8300 0.8300 0.8300 0.8300
3368.263528 0.8300 0.8300 0.8300 0.8300 0.8300
3372.886032 0.8300 0.8300 0.8300 0.8300 0.8300
3377.508535 0.8300 0.8300 0.8300 0.8300 0.8300
3382.131038 0.8292 0.8282 0.8280 0.8280 0.8280
3386.753542 0.8280 0.8280 0.8280 0.8280 0.8280
3391.376045 0.8280 0.8280 0.8280 0.8280 0.8276
3395.998548 0.8271 0.8270 0.8270 0.8266 0.8261
3400.621052 0.8260 0.8260 0.8256 0.8251 0.8250
3405.243555 0.8250 0.8242 0.8232 0.8230 0.8230
3409.866059 0.8226 0.8221 0.8220 0.8220 0.8216
3414.488562 0.8211 0.8210 0.8210 0.8206 0.8201
3419.111065 0.8196 0.8191 0.8183 0.8173 0.8163
3423.733569 0.8153 0.8146 0.8141 0.8133 0.8123
3428.356072 0.8116 0.8111 0.8110 0.8110 0.8092
3432.978575 0.8067 0.8057 0.8052 0.8036 0.8016
3437.601079 0.8003 0.7993 0.7976 0.7957 0.7933
3442.223582 0.7908 0.7844 0.7759 0.7667 0.7572
3446.846086 0.7503 0.7449 0.7364 0.7265 0.7175
3451.468589 0.7090 0.7021 0.6962 0.6896 0.6826
3456.091092 0.6787 0.6768 0.6760 0.6760 0.6873
3460.713596 0.7058 0.7145 0.7170 0.7240 0.7341
3465.336099 0.7438 0.7532 0.7594 0.7634 0.7674
3469.958602 0.7714 0.7756 0.7801 0.7832 0.7852
3474.581106 0.7880 0.7915 0.7933 0.7938 0.7943
3479.203609 0.7948 0.7964 0.7989 0.8011 0.8031
3483.826113 0.8054 0.8079 0.8093 0.8098 0.8105
3488.448616 0.8115 0.8120 0.8120 0.8128 0.8143
3493.071119 0.8163 0.8188 0.8205 0.8215 0.8223
3497.693623 0.8227 0.8237 0.8252 0.8265 0.8275
3502.316126 0.8285 0.8295 0.8302 0.8307 0.8312
3506.938629 0.8317 0.8320 0.8320 0.8325 0.8335
3511.561133 0.8347 0.8362 0.8370 0.8370 0.8372
3516.183636 0.8377 0.8382 0.8387 0.8394 0.8404
3520.806140 0.8412 0.8417 0.8427 0.8441 0.8456
3525.428643 0.8471 0.8484 0.8494 0.8500 0.8500
3530.051146 0.8500 0.8500 0.8504 0.8514 0.8520
3534.673650 0.8520 0.8522 0.8527 0.8530 0.8530
3539.296153 0.8532 0.8537 0.8542 0.8547 0.8552
3543.918656 0.8557 0.8560 0.8560 0.8560 0.8560
3548.541160 0.8564 0.8573 0.8580 0.8580 0.8580
3553.163663 0.8580 0.8582 0.8587 0.8590 0.8590
3557.786167 0.8590 0.8590 0.8592 0.8597 0.8600
3562.408670 0.8600 0.8600 0.8600 0.8600 0.8600
3567.031173 0.8600 0.8600 0.8600 0.8600 0.8599
3571.653677 0.8594 0.8590 0.8590 0.8590 0.8590
3576.276180 0.8590 0.8590 0.8589 0.8584 0.8580
3580.898683 0.8580 0.8575 0.8555 0.8535 0.8515
3585.521187 0.8500 0.8500 0.8499 0.8494 0.8483
3590.143690 0.8453 0.8414 0.8339 0.8274 0.8243
3594.766194 0.8220 0.8220 0.8221 0.8226 0.8237
3599.388697 0.8272 0.8306 0.8336 0.8361 0.8366
3604.011200 0.8370 0.8370 0.8370 0.8370 0.8369
3608.633704 0.8364 0.8355 0.8325 0.8293 0.8248
3613.256207 0.8205 0.8175 0.8148 0.8133 0.8115
3617.878710 0.8080 0.8046 0.8022 0.8000 0.8000
3622.501214 0.8002 0.8017 0.8038 0.8103 0.8169
3627.123717 0.8249 0.8322 0.8342 0.8367 0.8437
3631.746221 0.8502 0.8517 0.8534 0.8574 0.8612
3636.368724 0.8632 0.8651 0.8661 0.8671 0.8686
3640.991227 0.8701 0.8721 0.8740 0.8740 0.8741
3645.613731 0.8751 0.8760 0.8765 0.8770 0.8775
3650.236234 0.8781 0.8791 0.8800 0.8810 0.8820
3654.858737 0.8825 0.8830 0.8830 0.8830 0.8840
3659.481241 0.8850 0.8850 0.8850 0.8850 0.8850
3664.103744 0.8850 0.8850 0.8850 0.8850 0.8855
3668.726248 0.8860 0.8860 0.8860 0.8860 0.8860
3673.348751 0.8860 0.8860 0.8865 0.8870 0.8870
3677.971254 0.8870 0.8870 0.8870 0.8870 0.8870
3682.593758 0.8870 0.8870 0.8870 0.8870 0.8870
3687.216261 0.8870 0.8870 0.8870 0.8875 0.8880
3691.838764 0.8880 0.8880 0.8880 0.8880 0.8880
3696.461268 0.8880 0.8880 0.8880 0.8880 0.8880
3701.083771 0.8880 0.8880 0.8884 0.8889 0.8890
3705.706275 0.8890 0.8890 0.8890 0.8886 0.8881
3710.328778 0.8880 0.8880 0.8880 0.8880 0.8884
3714.951281 0.8889 0.8890 0.8890 0.8890 0.8890
3719.573785 0.8890 0.8890 0.8898 0.8908 0.8910
3724.196288 0.8910 0.8910 0.8910 0.8910 0.8910
3728.818791 0.8902 0.8892 0.8886 0.8881 0.8880
3733.441295 0.8880 0.8880 0.8880 0.8880 0.8880
3738.063798 0.8880 0.8880 0.8880 0.8880 0.8876
3742.686302 0.8871 0.8870 0.8870 0.8874 0.8879
3747.308805 0.8880 0.8880 0.8880 0.8880 0.8880
3751.931308 0.8880 0.8880 0.8880 0.8880 0.8880
3756.553812 0.8884 0.8889 0.8890 0.8890 0.8890
3761.176315 0.8890 0.8890 0.8890 0.8890 0.8890
3765.798818 0.8890 0.8890 0.8890 0.8890 0.8890
3770.421322 0.8890 0.8890 0.8890 0.8890 0.8890
3775.043825 0.8890 0.8890 0.8890 0.8890 0.8890
3779.666329 0.8890 0.8890 0.8890 0.8890 0.8890
3784.288832 0.8890 0.8890 0.8887 0.8882 0.8880
3788.911335 0.8880 0.8880 0.8880 0.8880 0.8880
3793.533839 0.8880 0.8880 0.8880 0.8880 0.8880
3798.156342 0.8880 0.8883 0.8888 0.8890 0.8890
3802.778845 0.8890 0.8890 0.8890 0.8890 0.8890
3807.401349 0.8890 0.8890 0.8890 0.8890 0.8890
3812.023852 0.8890 0.8890 0.8890 0.8890 0.8890
3816.646356 0.8890 0.8890 0.8890 0.8890 0.8890
3821.268859 0.8890 0.8890 0.8890 0.8890 0.8890
3825.891362 0.8890 0.8887 0.8882 0.8880 0.8880
3830.513866 0.8882 0.8887 0.8890 0.8890 0.8890
3835.136369 0.8890 0.8890 0.8890 0.8890 0.8890
3839.758872 0.8890 0.8890 0.8890 0.8890 0.8890
3844.381376 0.8890 0.8890 0.8890 0.8890 0.8890
3849.003879 0.8890 0.8890 0.8890 0.8890 0.8890
3853.626383 0.8890 0.8888 0.8883 0.8880 0.8880
3858.248886 0.8880 0.8880 0.8878 0.8873 0.8870
3862.871389 0.8870 0.8870 0.8870 0.8870 0.8870
3867.493893 0.8870 0.8870 0.8870 0.8870 0.8870
3872.116396 0.8870 0.8870 0.8870 0.8870 0.8870
3876.738899 0.8870 0.8870 0.8870 0.8870 0.8870
3881.361403 0.8870 0.8868 0.8863 0.8860 0.8860
3885.983906 0.8860 0.8860 0.8860 0.8860 0.8860
3890.606410 0.8860 0.8860 0.8860 0.8860 0.8860
3895.228913 0.8860 0.8860 0.8860 0.8860 0.8860
3899.851416 0.8860 0.8860 0.8860 0.8860 0.8860
3904.473920 0.8860 0.8860 0.8860 0.8860 0.8860
3909.096423 0.8860 0.8860 0.8860 0.8860 0.8860
3913.718926 0.8860 0.8860 0.8860 0.8860 0.8860
3918.341430 0.8860 0.8860 0.8860 0.8860 0.8860
3922.963933 0.8860 0.8860 0.8860 0.8860 0.8860
3927.586437 0.8860 0.8859 0.8854 0.8850 0.8850
3932.208940 0.8850 0.8850 0.8850 0.8850 0.8850
3936.831443 0.8850 0.8850 0.8850 0.8850 0.8850
3941.453947 0.8850 0.8850 0.8850 0.8850 0.8850
3946.076450 0.8850 0.8850 0.8850 0.8850 0.8850
3950.698953 0.8850 0.8850 0.8850 0.8850 0.8849
3955.321457 0.8839 0.8830 0.8830 0.8830 0.8830
3959.943960 0.8830 0.8830 0.8830 0.8830 0.8830
3964.566464 0.8830 0.8830 0.8830 0.8830 0.8830
3969.188967 0.8830 0.8830 0.8830 0.8830 0.8830
3973.811470 0.8830 0.8830 0.8830 0.8830 0.8830
3978.433974 0.8830 0.8830 0.8830 0.8830 0.8830
3983.056477 0.8830 0.8830 0.8830 0.8830 0.8830
3987.678980 0.8830 0.8830 0.8830 0.8825 0.8820
3992.301484 0.8820 0.8820 0.8820 0.8820 0.8825
3996.923987 0.8830 0.8830 0.8830 0.8825 0.8820
4001.546491 0.8820 0.8820 0.8820 0.8820
##END=
