##TITLE=1-CHLOROPROPANE
##JCAMP-DX=4.24
##DATA TYPE=INFRARED SPECTRUM
##CLASS=COBLENTZ
##ORIGIN=WYANDOTTE CHEMICALS CORP., WYANDOTTE, MICHIGAN, USA
##OWNER=COBLENTZ SOCIETY
Collection (C) 2018 copyright by the U.S. Secretary of Commerce
on behalf of the United States of America. All rights reserved.
##DATE=Not specified, most likely prior to 1970
##CAS REGISTRY NO=540-54-5
##MOLFORM=C3 H7 Cl
##BP=45-47 C
##SOURCE REFERENCE=COBLENTZ NO. 121
##$NIST SOURCE=COBLENTZ
##$NIST IMAGE=cob121
##SPECTROMETER/DATA SYSTEM=Not specified, most likely a prism, grating, or hybrid spectrometer.
##STATE=GAS
##SAMPLING PROCEDURE=TRANSMISSION
##RESOLUTION=4
##DATA PROCESSING=DIGITIZED BY NIST FROM HARD COPY
##XUNITS=MICROMETERS
##YUNITS=TRANSMITTANCE
##XFACTOR=1.000000
##YFACTOR=1
##DELTAX=000.006663
##FIRSTX=2.061
##LASTX=16.0193
##FIRSTY=1.003
##MAXX=16.0193
##MINX=2.061
##MAXY=1.016
##MINY=0.023
##NPOINTS=2096
##XYDATA=(X++(Y..Y))
2.061000 1.0030 1.0100 1.0130 1.0150 1.0150
2.094331 1.0130 1.0130 1.0130 1.0130 1.0030
2.127000 1.0010 1.0000 1.0110 1.0100 1.0030
2.160331 1.0010 1.0010 1.0000 0.9910 0.9880
2.194000 0.9880 0.9900 0.9880 0.9880 0.9880
2.227331 0.9900 0.9900 0.9910 0.9930 0.9930
2.260000 0.9950 0.9950 0.9960 0.9950 0.9950
2.293331 0.9960 0.9930 0.9950 0.9960 0.9910
2.327000 0.9930 1.0000 1.0010 1.0010 1.0010
2.360331 1.0000 0.9980 0.9980 1.0030 1.0030
2.394000 1.0050 1.0030 1.0050 1.0030 1.0010
2.427331 1.0010 1.0010 1.0000 0.9960 0.9950
2.460000 0.9950 1.0030 1.0030 1.0030 1.0060
2.493331 1.0100 1.0110 1.0110 1.0110 1.0100
2.527000 1.0100 1.0080 1.0050 1.0030 1.0010
2.560331 1.0010 1.0010 1.0010 1.0010 1.0010
2.594000 1.0000 1.0050 1.0030 1.0060 1.0100
2.627331 1.0150 1.0130 1.0110 1.0060 1.0030
2.660000 1.0010 1.0030 1.0080 1.0080 1.0080
2.693331 1.0080 1.0080 1.0110 1.0110 1.0030
2.727000 1.0030 1.0030 1.0030 1.0030 1.0030
2.760331 1.0060 1.0100 1.0100 1.0160 1.0130
2.793000 1.0100 1.0060 1.0030 1.0030 1.0010
2.826331 1.0010 1.0010 1.0130 1.0050 1.0050
2.860000 1.0030 1.0010 1.0000 1.0030 1.0000
2.893331 1.0000 0.9960 1.0000 1.0000 1.0030
2.927000 1.0030 1.0030 1.0010 1.0010 1.0030
2.960331 1.0010 1.0010 1.0000 1.0000 1.0000
2.993000 0.9980 1.0000 0.9980 0.9980 1.0000
3.026331 0.9980 0.9980 0.9960 1.0000 0.9930
3.060000 0.9910 0.9900 0.9880 0.9880 0.9860
3.093331 0.9850 0.9810 0.9760 0.9730 0.9580
3.127000 0.9530 0.9450 0.9330 0.9300 0.9260
3.160331 0.9300 0.9300 0.9300 0.9300 0.9330
3.193000 0.9330 0.9300 0.9250 0.9210 0.9160
3.226331 0.9110 0.9080 0.9050 0.9050 0.9060
3.260000 0.9160 0.9160 0.9030 0.8910 0.8130
3.293331 0.7330 0.6530 0.5530 0.4530 0.3530
3.326000 0.2530 0.1530 0.0530 0.0260 0.0230
3.359331 0.0250 0.0300 0.0330 0.0400 0.0460
3.393000 0.0510 0.0560 0.0660 0.0800 0.0950
3.426331 0.1210 0.1250 0.1260 0.1280 0.1280
3.460000 0.1300 0.1380 0.1580 0.1780 0.2050
3.493331 0.2730 0.3210 0.4080 0.4480 0.5260
3.526000 0.5660 0.6000 0.7000 0.7350 0.8080
3.559331 0.8260 0.8350 0.8500 0.8650 0.8880
3.593000 0.9010 0.9050 0.9110 0.9210 0.9210
3.626331 0.9150 0.9110 0.9110 0.9050 0.9050
3.660000 0.9110 0.9150 0.9160 0.9230 0.9300
3.693331 0.9330 0.9310 0.9310 0.9300 0.9280
3.726000 0.9260 0.9260 0.9300 0.9310 0.9330
3.759331 0.9330 0.9350 0.9400 0.9430 0.9500
3.793000 0.9530 0.9610 0.9680 0.9630 0.9650
3.826331 0.9660 0.9660 0.9730 0.9730 0.9700
3.860000 0.9700 0.9650 0.9700 0.9700 0.9700
3.893331 0.9700 0.9710 0.9760 0.9760 0.9710
3.926000 0.9710 0.9680 0.9660 0.9650 0.9650
3.959331 0.9630 0.9630 0.9610 0.9610 0.9600
3.993000 0.9600 0.9600 0.9600 0.9600 0.9600
4.026331 0.9610 0.9610 0.9610 0.9610 0.9610
4.059000 0.9610 0.9630 0.9630 0.9630 0.9630
4.092331 0.9630 0.9630 0.9610 0.9610 0.9560
4.126000 0.9550 0.9530 0.9530 0.9580 0.9530
4.159331 0.9500 0.9500 0.9500 0.9480 0.9460
4.193000 0.9460 0.9450 0.9460 0.9460 0.9500
4.226331 0.9500 0.9510 0.9530 0.9550 0.9560
4.259000 0.9580 0.9610 0.9630 0.9630 0.9660
4.292331 0.9710 0.9760 0.9810 0.9830 0.9830
4.326000 0.9830 0.9850 0.9850 0.9810 0.9830
4.359331 0.9850 0.9850 0.9910 0.9900 0.9850
4.393000 0.9780 0.9710 0.9700 0.9660 0.9610
4.426331 0.9600 0.9600 0.9600 0.9600 0.9610
4.459000 0.9610 0.9630 0.9630 0.9610 0.9630
4.492331 0.9630 0.9600 0.9600 0.9560 0.9550
4.526000 0.9510 0.9510 0.9480 0.9480 0.9510
4.559331 0.9530 0.9550 0.9560 0.9660 0.9660
4.592000 0.9550 0.9550 0.9610 0.9610 0.9610
4.625331 0.9600 0.9600 0.9600 0.9600 0.9600
4.659000 0.9600 0.9600 0.9610 0.9610 0.9610
4.692331 0.9630 0.9650 0.9660 0.9700 0.9650
4.726000 0.9610 0.9600 0.9610 0.9610 0.9630
4.759331 0.9650 0.9660 0.9680 0.9700 0.9710
4.792000 0.9680 0.9710 0.9730 0.9710 0.9710
4.825331 0.9700 0.9700 0.9680 0.9680 0.9660
4.859000 0.9700 0.9700 0.9710 0.9710 0.9710
4.892331 0.9680 0.9660 0.9650 0.9650 0.9630
4.926000 0.9630 0.9560 0.9560 0.9630 0.9630
4.959331 0.9650 0.9660 0.9700 0.9700 0.9710
4.992000 0.9710 0.9710 0.9730 0.9750 0.9760
5.025331 0.9800 0.9780 0.9780 0.9780 0.9760
5.059000 0.9750 0.9750 0.9750 0.9730 0.9730
5.092331 0.9730 0.9730 0.9710 0.9700 0.9710
5.125000 0.9710 0.9710 0.9710 0.9700 0.9680
5.158331 0.9660 0.9660 0.9650 0.9630 0.9630
5.192000 0.9610 0.9650 0.9610 0.9610 0.9610
5.225331 0.9610 0.9610 0.9610 0.9600 0.9550
5.259000 0.9550 0.9610 0.9610 0.9560 0.9530
5.292331 0.9510 0.9510 0.9460 0.9460 0.9530
5.325000 0.9550 0.9550 0.9580 0.9550 0.9580
5.358331 0.9600 0.9610 0.9630 0.9650 0.9710
5.392000 0.9710 0.9660 0.9650 0.9630 0.9610
5.425331 0.9600 0.9600 0.9600 0.9600 0.9600
5.459000 0.9600 0.9600 0.9600 0.9600 0.9610
5.492331 0.9610 0.9610 0.9610 0.9610 0.9610
5.525000 0.9610 0.9610 0.9610 0.9630 0.9630
5.558331 0.9630 0.9650 0.9650 0.9650 0.9650
5.592000 0.9650 0.9650 0.9650 0.9610 0.9600
5.625331 0.9600 0.9580 0.9580 0.9560 0.9580
5.659000 0.9580 0.9580 0.9580 0.9580 0.9560
5.692331 0.9560 0.9550 0.9610 0.9610 0.9600
5.725000 0.9600 0.9600 0.9600 0.9610 0.9610
5.758331 0.9560 0.9550 0.9510 0.9500 0.9460
5.792000 0.9430 0.9400 0.9380 0.9400 0.9380
5.825331 0.9380 0.9380 0.9380 0.9360 0.9350
5.858000 0.9360 0.9410 0.9450 0.9500 0.9530
5.891331 0.9500 0.9360 0.9300 0.9300 0.9360
5.925000 0.9360 0.9430 0.9430 0.9400 0.9350
5.958331 0.9350 0.9330 0.9300 0.9330 0.9380
5.992000 0.9360 0.9310 0.9300 0.9250 0.9250
6.025331 0.9300 0.9300 0.9310 0.9360 0.9400
6.058000 0.9410 0.9410 0.9410 0.9410 0.9410
6.091331 0.9450 0.9450 0.9400 0.9360 0.9360
6.125000 0.9410 0.9460 0.9460 0.9410 0.9400
6.158331 0.9400 0.9360 0.9330 0.9300 0.9300
6.192000 0.9280 0.9260 0.9260 0.9250 0.9230
6.225331 0.9210 0.9210 0.9210 0.9230 0.9230
6.258000 0.9250 0.9250 0.9250 0.9260 0.9260
6.291331 0.9300 0.9300 0.9310 0.9310 0.9310
6.325000 0.9360 0.9360 0.9350 0.9350 0.9330
6.358331 0.9350 0.9350 0.9360 0.9400 0.9400
6.391000 0.9410 0.9430 0.9410 0.9410 0.9400
6.424331 0.9400 0.9410 0.9430 0.9500 0.9500
6.458000 0.9450 0.9410 0.9400 0.9400 0.9380
6.491331 0.9380 0.9350 0.9310 0.9300 0.9280
6.525000 0.9250 0.9230 0.9210 0.9200 0.9150
6.558331 0.9080 0.8930 0.8860 0.8750 0.8700
6.591000 0.8630 0.8500 0.8380 0.8130 0.7900
6.624331 0.7500 0.7430 0.7360 0.7200 0.7000
6.658000 0.6530 0.6280 0.6150 0.6010 0.5880
6.691331 0.5080 0.4800 0.4500 0.4360 0.4180
6.725000 0.4010 0.3900 0.3780 0.3710 0.3610
6.758331 0.3510 0.3300 0.3100 0.2880 0.2710
6.791000 0.2650 0.2480 0.2400 0.2400 0.2450
6.824331 0.2450 0.2510 0.2550 0.2560 0.2600
6.858000 0.2600 0.2610 0.2700 0.2850 0.3030
6.891331 0.3210 0.3260 0.3310 0.3350 0.3500
6.924000 0.3850 0.4100 0.4500 0.4800 0.5700
6.957331 0.6000 0.6510 0.6630 0.6900 0.7100
6.991000 0.7200 0.7300 0.7330 0.7750 0.7830
7.024331 0.7900 0.8010 0.8100 0.8180 0.8180
7.058000 0.8110 0.8080 0.8010 0.7850 0.7700
7.091331 0.7500 0.7330 0.7160 0.6700 0.6500
7.124000 0.6260 0.6010 0.5580 0.5500 0.5430
7.157331 0.5250 0.5250 0.5400 0.5400 0.5500
7.191000 0.5530 0.5580 0.5610 0.5650 0.5700
7.224331 0.5700 0.5710 0.5750 0.5800 0.5900
7.258000 0.6130 0.6730 0.6910 0.7260 0.7700
7.291331 0.7800 0.8000 0.8100 0.8180 0.8210
7.324000 0.8210 0.8110 0.8030 0.8000 0.7680
7.357331 0.7500 0.7430 0.7360 0.7130 0.6960
7.391000 0.6810 0.6650 0.6600 0.6560 0.6550
7.424331 0.6450 0.6380 0.6300 0.6210 0.6060
7.458000 0.5910 0.5230 0.5030 0.4810 0.4700
7.491331 0.4650 0.4560 0.4550 0.4500 0.4450
7.524000 0.4350 0.4300 0.4100 0.4000 0.3660
7.557331 0.3500 0.3330 0.2950 0.2510 0.2310
7.591000 0.2100 0.1750 0.1630 0.1600 0.1630
7.624331 0.1730 0.1780 0.1850 0.2000 0.2010
7.657000 0.2010 0.2050 0.2110 0.2130 0.2180
7.690331 0.2250 0.2300 0.2310 0.2430 0.2700
7.724000 0.2850 0.3150 0.3380 0.3880 0.4150
7.757331 0.4500 0.5210 0.5460 0.5580 0.5730
7.791000 0.5760 0.5750 0.5730 0.5610 0.5380
7.824331 0.5110 0.4980 0.4830 0.4610 0.4400
7.857000 0.4110 0.3910 0.3580 0.3550 0.3500
7.890331 0.3260 0.3200 0.3100 0.3100 0.3200
7.924000 0.3200 0.3300 0.3480 0.3750 0.3880
7.957331 0.3980 0.3930 0.3980 0.4130 0.4330
7.991000 0.4530 0.4730 0.5260 0.5560 0.5880
8.024331 0.6510 0.6650 0.7010 0.7250 0.7400
8.057000 0.7710 0.7880 0.8010 0.8110 0.8230
8.090331 0.8300 0.8310 0.8330 0.8400 0.8530
8.124000 0.8550 0.8630 0.8650 0.8660 0.8700
8.157331 0.8800 0.8810 0.8760 0.8760 0.8830
8.190000 0.8850 0.8880 0.8900 0.8950 0.8960
8.223331 0.8980 0.9000 0.8960 0.9000 0.9050
8.257000 0.9050 0.9010 0.9010 0.8950 0.8950
8.290331 0.9010 0.9010 0.9030 0.9030 0.9050
8.324000 0.9060 0.9080 0.9130 0.9050 0.9100
8.357331 0.9130 0.9180 0.9230 0.9250 0.9250
8.390000 0.9260 0.9260 0.9280 0.9300 0.9310
8.423331 0.9310 0.9310 0.9330 0.9330 0.9350
8.457000 0.9400 0.9400 0.9360 0.9360 0.9360
8.490331 0.9380 0.9380 0.9350 0.9330 0.9330
8.524000 0.9330 0.9300 0.9300 0.9310 0.9350
8.557331 0.9310 0.9300 0.9300 0.9250 0.9300
8.590000 0.9300 0.9310 0.9330 0.9350 0.9360
8.623331 0.9360 0.9400 0.9360 0.9360 0.9350
8.657000 0.9330 0.9350 0.9330 0.9330 0.9300
8.690331 0.9330 0.9350 0.9360 0.9400 0.9430
8.723000 0.9460 0.9480 0.9500 0.9500 0.9500
8.756331 0.9500 0.9500 0.9500 0.9500 0.9460
8.790000 0.9450 0.9450 0.9430 0.9410 0.9400
8.823331 0.9400 0.9410 0.9450 0.9450 0.9500
8.857000 0.9450 0.9430 0.9400 0.9400 0.9360
8.890331 0.9350 0.9330 0.9300 0.9300 0.9260
8.923000 0.9230 0.9230 0.9200 0.9130 0.9130
8.956331 0.9110 0.9080 0.9080 0.9080 0.9060
8.990000 0.9050 0.9030 0.9010 0.9000 0.8980
9.023331 0.9000 0.8910 0.8880 0.8860 0.8830
9.057000 0.8760 0.8750 0.8730 0.8710 0.8700
9.090331 0.8700 0.8650 0.8650 0.8650 0.8650
9.123000 0.8680 0.8680 0.8680 0.8660 0.8650
9.156331 0.8610 0.8560 0.8530 0.8530 0.8510
9.190000 0.8510 0.8500 0.8500 0.8480 0.8480
9.223331 0.8450 0.8460 0.8480 0.8460 0.8450
9.257000 0.8450 0.8450 0.8450 0.8450 0.8450
9.290331 0.8450 0.8460 0.8500 0.8500 0.8500
9.323000 0.8450 0.8400 0.8360 0.8260 0.8210
9.356331 0.8210 0.8250 0.8260 0.8260 0.8310
9.390000 0.8310 0.8230 0.8210 0.8200 0.8160
9.423331 0.8150 0.8150 0.8130 0.8080 0.8050
9.456000 0.7900 0.7850 0.7750 0.7650 0.7550
9.489331 0.7510 0.7510 0.7530 0.7550 0.7560
9.523000 0.7560 0.7560 0.7560 0.7600 0.7550
9.556331 0.7510 0.7480 0.7460 0.7450 0.7410
9.590000 0.7360 0.7280 0.7280 0.7260 0.7250
9.623331 0.7250 0.7260 0.7280 0.7300 0.7330
9.656000 0.7350 0.7360 0.7380 0.7380 0.7400
9.689331 0.7410 0.7500 0.7580 0.7630 0.7700
9.723000 0.7780 0.7810 0.7850 0.7980 0.8010
9.756331 0.8050 0.8130 0.8200 0.8230 0.8250
9.790000 0.8350 0.8410 0.8500 0.8510 0.8550
9.823331 0.8580 0.8630 0.8680 0.8810 0.8850
9.856000 0.8880 0.8900 0.8910 0.8930 0.8950
9.889331 0.9000 0.9010 0.9110 0.9050 0.9050
9.923000 0.9050 0.9100 0.9110 0.9130 0.9130
9.956331 0.9150 0.9150 0.9160 0.9180 0.9200
9.989000 0.9200 0.9300 0.9160 0.9160 0.9160
10.022331 0.9160 0.9160 0.9160 0.9160 0.9200
10.056000 0.9210 0.9230 0.9210 0.9200 0.9210
10.089331 0.9210 0.9230 0.9250 0.9300 0.9250
10.123000 0.9250 0.9230 0.9250 0.9230 0.9200
10.156331 0.9200 0.9230 0.9230 0.9250 0.9250
10.189000 0.9250 0.9260 0.9250 0.9250 0.9250
10.222331 0.9250 0.9260 0.9300 0.9230 0.9230
10.256000 0.9160 0.9250 0.9250 0.9250 0.9260
10.289331 0.9280 0.9280 0.9260 0.9250 0.9260
10.323000 0.9260 0.9280 0.9260 0.9230 0.9210
10.356331 0.9210 0.9230 0.9230 0.9250 0.9250
10.389000 0.9280 0.9250 0.9230 0.9210 0.9210
10.422331 0.9200 0.9200 0.9230 0.9300 0.9300
10.456000 0.9250 0.9230 0.9230 0.9250 0.9260
10.489331 0.9260 0.9260 0.9260 0.9250 0.9250
10.522000 0.9280 0.9310 0.9330 0.9280 0.9280
10.555331 0.9280 0.9260 0.9260 0.9230 0.9260
10.589000 0.9260 0.9280 0.9300 0.9330 0.9280
10.622331 0.9260 0.9300 0.9300 0.9280 0.9280
10.656000 0.9280 0.9310 0.9310 0.9260 0.9260
10.689331 0.9250 0.9230 0.9230 0.9210 0.9160
10.722000 0.9130 0.9110 0.9110 0.9110 0.9110
10.755331 0.9100 0.9100 0.9100 0.9100 0.9080
10.789000 0.9080 0.9060 0.9060 0.9050 0.9030
10.822331 0.9010 0.9000 0.8950 0.8880 0.8800
10.856000 0.8750 0.8710 0.8660 0.8610 0.8560
10.889331 0.8500 0.8410 0.8250 0.8110 0.7880
10.922000 0.7650 0.7530 0.7400 0.7060 0.6810
10.955331 0.6510 0.6230 0.5930 0.5480 0.5050
10.989000 0.4980 0.4780 0.4580 0.4400 0.4060
11.022331 0.3700 0.3610 0.3560 0.3510 0.3480
11.056000 0.3430 0.3430 0.3530 0.3630 0.3660
11.089331 0.3700 0.3730 0.3780 0.3850 0.3910
11.122000 0.3980 0.3910 0.3860 0.3630 0.3510
11.155331 0.3400 0.3350 0.3300 0.3310 0.3350
11.189000 0.3360 0.3400 0.3450 0.3500 0.3530
11.222331 0.3680 0.3750 0.3900 0.3930 0.4060
11.255000 0.4150 0.4210 0.4330 0.4410 0.4530
11.288331 0.4610 0.4730 0.5000 0.5100 0.5200
11.322000 0.5360 0.5610 0.5710 0.5850 0.6010
11.355331 0.6130 0.6460 0.6660 0.6710 0.6780
11.389000 0.6830 0.6950 0.7000 0.7110 0.7210
11.422331 0.7300 0.7330 0.7330 0.7380 0.7350
11.455000 0.7280 0.7160 0.7100 0.7000 0.6930
11.488331 0.6810 0.6680 0.6530 0.6480 0.6380
11.522000 0.6280 0.6160 0.6050 0.5950 0.5880
11.555331 0.5810 0.5760 0.5750 0.5750 0.5760
11.589000 0.5780 0.5810 0.5850 0.5910 0.5950
11.622331 0.6030 0.6150 0.6100 0.6050 0.6000
11.655000 0.5910 0.5880 0.5830 0.5800 0.5810
11.688331 0.5830 0.5860 0.5980 0.6150 0.6130
11.722000 0.6110 0.6100 0.6100 0.6080 0.6050
11.755331 0.6050 0.6030 0.6030 0.6010 0.6030
11.788000 0.6050 0.6050 0.6100 0.6110 0.6130
11.821331 0.6180 0.6200 0.6250 0.6300 0.6430
11.855000 0.6510 0.6610 0.6710 0.6850 0.6880
11.888331 0.7010 0.7110 0.7160 0.7250 0.7350
11.922000 0.7550 0.7650 0.7710 0.7750 0.7760
11.955331 0.7810 0.7900 0.8010 0.8050 0.8150
11.988000 0.8260 0.8280 0.8330 0.8350 0.8410
12.021331 0.8430 0.8550 0.8550 0.8600 0.8610
12.055000 0.8630 0.8650 0.8660 0.8680 0.8700
12.088331 0.8730 0.8760 0.8810 0.8810 0.8750
12.122000 0.8730 0.8700 0.8730 0.8710 0.8710
12.155331 0.8710 0.8700 0.8700 0.8680 0.8650
12.188000 0.8630 0.8580 0.8510 0.8480 0.8430
12.221331 0.8410 0.8310 0.8250 0.8180 0.8080
12.255000 0.8010 0.8000 0.8000 0.7880 0.7830
12.288331 0.7750 0.7610 0.7480 0.7330 0.7230
12.321000 0.7010 0.6980 0.6830 0.6680 0.6350
12.354331 0.6180 0.6000 0.5810 0.5730 0.5500
12.388000 0.5260 0.5030 0.4900 0.4760 0.4480
12.421331 0.4280 0.4080 0.3880 0.3730 0.3580
12.455000 0.3480 0.3360 0.3180 0.3080 0.2960
12.488331 0.2880 0.2860 0.2830 0.2810 0.2810
12.521000 0.2830 0.2850 0.2860 0.2900 0.2980
12.554331 0.3000 0.3100 0.3200 0.3300 0.3330
12.588000 0.3360 0.3450 0.3450 0.3130 0.2980
12.621331 0.2930 0.2860 0.2750 0.2650 0.2650
12.655000 0.2700 0.2780 0.2900 0.3000 0.3180
12.688331 0.3330 0.3430 0.3430 0.3310 0.3260
12.721000 0.3200 0.3160 0.3130 0.3100 0.3110
12.754331 0.3180 0.3250 0.3300 0.3400 0.3500
12.788000 0.3560 0.3780 0.3980 0.4130 0.4260
12.821331 0.4400 0.4530 0.4660 0.5000 0.5100
12.855000 0.5280 0.5430 0.5500 0.5630 0.5760
12.888331 0.6000 0.6050 0.6250 0.6330 0.6480
12.921000 0.6600 0.6680 0.6780 0.6860 0.6980
12.954331 0.7000 0.7010 0.7030 0.7050 0.7100
12.988000 0.7150 0.7210 0.7260 0.7280 0.7300
13.021331 0.7310 0.7300 0.7260 0.7280 0.7280
13.054000 0.7330 0.7280 0.7250 0.7230 0.7160
13.087331 0.7110 0.7030 0.6930 0.6800 0.6750
13.121000 0.6560 0.6430 0.6300 0.6200 0.6100
13.154331 0.5850 0.5560 0.5360 0.5100 0.4950
13.188000 0.4800 0.4500 0.4200 0.3900 0.3710
13.221331 0.3530 0.3310 0.3100 0.2860 0.2760
13.254000 0.2500 0.2400 0.2310 0.2280 0.2230
13.287331 0.2150 0.2060 0.1980 0.1960 0.1960
13.321000 0.1930 0.1910 0.1910 0.1910 0.1910
13.354331 0.1900 0.1900 0.1900 0.1910 0.1930
13.388000 0.1930 0.1930 0.1950 0.1950 0.1980
13.421331 0.1980 0.2000 0.2010 0.2010 0.2030
13.454000 0.2080 0.2110 0.2130 0.2150 0.2160
13.487331 0.2180 0.2160 0.2180 0.2180 0.2200
13.521000 0.2200 0.2210 0.2210 0.2210 0.2210
13.554331 0.2210 0.2230 0.2250 0.2280 0.2310
13.587000 0.2350 0.2380 0.2400 0.2460 0.2530
13.620331 0.2550 0.2580 0.2700 0.2730 0.2780
13.654000 0.2880 0.3000 0.3080 0.3160 0.3250
13.687331 0.3330 0.3460 0.3480 0.3700 0.3950
13.721000 0.4100 0.4210 0.4330 0.4480 0.4610
13.754331 0.4710 0.4850 0.5110 0.5250 0.5500
13.787000 0.5580 0.5680 0.5750 0.5810 0.5930
13.820331 0.6050 0.6310 0.6410 0.6500 0.6560
13.854000 0.6660 0.6710 0.6810 0.6880 0.7000
13.887331 0.7050 0.7110 0.7160 0.7210 0.7280
13.921000 0.7350 0.7500 0.7550 0.7600 0.7660
13.954331 0.7710 0.7750 0.7810 0.7880 0.7910
13.987000 0.7980 0.8000 0.8000 0.8030 0.8050
14.020331 0.8080 0.8100 0.8110 0.8150 0.8210
14.054000 0.8280 0.8300 0.8310 0.8330 0.8350
14.087331 0.8380 0.8410 0.8430 0.8480 0.8500
14.120000 0.8530 0.8550 0.8580 0.8610 0.8650
14.153331 0.8660 0.8650 0.8660 0.8680 0.8730
14.187000 0.8730 0.8760 0.8800 0.8810 0.8830
14.220331 0.8850 0.8850 0.8860 0.8880 0.8880
14.254000 0.8850 0.8850 0.8880 0.8880 0.8880
14.287331 0.8880 0.8880 0.8880 0.8860 0.8880
14.320000 0.8880 0.8850 0.8850 0.8850 0.8850
14.353331 0.8850 0.8830 0.8830 0.8830 0.8810
14.387000 0.8810 0.8800 0.8750 0.8730 0.8710
14.420331 0.8710 0.8700 0.8660 0.8660 0.8660
14.454000 0.8650 0.8610 0.8560 0.8550 0.8550
14.487331 0.8530 0.8530 0.8510 0.8500 0.8500
14.520000 0.8480 0.8460 0.8430 0.8400 0.8380
14.553331 0.8360 0.8350 0.8310 0.8280 0.8280
14.587000 0.8260 0.8250 0.8230 0.8180 0.8130
14.620331 0.8110 0.8080 0.8050 0.8030 0.8000
14.654000 0.7980 0.7930 0.7900 0.7850 0.7850
14.687331 0.7830 0.7830 0.7810 0.7760 0.7680
14.720000 0.7630 0.7580 0.7550 0.7500 0.7460
14.753331 0.7430 0.7380 0.7300 0.7210 0.7160
14.787000 0.7000 0.6850 0.6710 0.6680 0.6500
14.820331 0.6230 0.6180 0.6110 0.6000 0.5980
14.853000 0.5680 0.5580 0.5500 0.5280 0.5160
14.886331 0.5080 0.4980 0.4850 0.4700 0.4560
14.920000 0.4480 0.4330 0.4230 0.4160 0.4110
14.953331 0.4050 0.4000 0.3960 0.3950 0.3930
14.987000 0.3930 0.3930 0.3950 0.3980 0.4060
15.020331 0.4130 0.4200 0.4280 0.4350 0.4400
15.053000 0.4460 0.4500 0.4530 0.4550 0.4600
15.086331 0.4680 0.4680 0.4630 0.4580 0.4510
15.120000 0.4410 0.4330 0.4330 0.4330 0.4310
15.153331 0.4300 0.4250 0.4230 0.4210 0.4210
15.187000 0.4200 0.4210 0.4250 0.4260 0.4280
15.220331 0.4330 0.4360 0.4380 0.4410 0.4480
15.253000 0.4450 0.4450 0.4460 0.4460 0.4500
15.286331 0.4510 0.4530 0.4550 0.4580 0.4650
15.320000 0.4650 0.4610 0.4610 0.4610 0.4630
15.353331 0.4660 0.4700 0.4730 0.4750 0.4760
15.386000 0.4750 0.4780 0.4830 0.4850 0.4930
15.419331 0.5000 0.5030 0.5060 0.5110 0.5180
15.453000 0.5210 0.5260 0.5310 0.5330 0.5360
15.486331 0.5480 0.5560 0.5600 0.5660 0.5680
15.520000 0.5760 0.5830 0.5980 0.6000 0.6050
15.553331 0.6100 0.6200 0.6210 0.6300 0.6380
15.586000 0.6430 0.6450 0.6510 0.6550 0.6610
15.619331 0.6700 0.6750 0.6780 0.6810 0.6850
15.653000 0.6880 0.6910 0.6980 0.6980 0.7010
15.686331 0.7060 0.7130 0.7150 0.7180 0.7230
15.720000 0.7250 0.7300 0.7310 0.7360 0.7380
15.753331 0.7380 0.7380 0.7400 0.7460 0.7480
15.786000 0.7480 0.7500 0.7550 0.7560 0.7580
15.819331 0.7600 0.7600 0.7610 0.7630 0.7630
15.853000 0.7660 0.7660 0.7660 0.7680 0.7700
15.886331 0.7700 0.7750 0.7750 0.7710 0.7680
15.919000 0.7700 0.7710 0.7710 0.7730 0.7750
15.952331 0.7760 0.7760 0.7760 0.7780 0.7800
15.986000 0.7800 0.7760 0.7760 0.7760 0.7780
16.019331 0.7800
##END=
