##TITLE=GLYCINE
##JCAMP-DX=4.24
$$ By DXEDIT 1.05 (RS McDonald)
##DATA TYPE=INFRARED SPECTRUM
##CLASS=COBLENTZ III
##ORIGIN=SMITH KLINE & FRENCH LABS.
##OWNER=COBLENTZ SOC.
Collection (C) 2018 copyright by the U.S. Secretary of Commerce
on behalf of the United States of America. All rights reserved.
##DATE=1965/06/25
##NAMES=aminoacetic acid
AMINOACETIC ACID
##CAS REGISTRY NO=56-40-6
##MOLFORM=C2 H5 N O2
##MP=233 C, DECOMP.
##SOURCE REFERENCE=COBLENTZ NO. 05811
##$NIST SOURCE=COBLENTZ
##$NIST IMAGE=cob5811
##SPECTROMETER/DATA SYSTEM=PERKIN-ELMER 521 (GRATING)
##INSTRUMENT PARAMETERS=ORDER CHANGES: 1999, 690 CM^-^1
##STATE=SOLID (MULL, KBr DISC)
$$INACTIVE KBr PLATES AROUND 300-200 CM^-^1
##SAMPLING PROCEDURE=TRANSMISSION
##RESOLUTION=2
##DATA PROCESSING=DIGITIZED BY COBLENTZ SOCIETY (BATCH I) FROM HARD COPY
##XUNITS=1/CM
##YUNITS=TRANSMITTANCE
##XLABEL=Wavenumbers (cm-1)
##YLABEL=Transmittance
##XFACTOR=1
##YFACTOR=1
##DELTAX=1
##FIRSTX=4008
##LASTX=300
##FIRSTY=0.6292
##MAXX=4008
##MINX=300
##MAXY=0.7996
##MINY=0.1045
##NPOINTS=3709
##XYDATA=(X++(Y..Y))
4008.000000 0.6292 0.6293 0.6294 0.6295 0.6296
4003.000000 0.6297 0.6298 0.6299 0.6301 0.6302
3998.000000 0.6303 0.6304 0.6305 0.6306 0.6308
3993.000000 0.6309 0.6310 0.6310 0.6312 0.6312
3988.000000 0.6315 0.6316 0.6317 0.6318 0.6319
3983.000000 0.6320 0.6322 0.6323 0.6324 0.6325
3978.000000 0.6326 0.6327 0.6328 0.6328 0.6329
3973.000000 0.6329 0.6330 0.6330 0.6331 0.6331
3968.000000 0.6332 0.6332 0.6333 0.6333 0.6334
3963.000000 0.6334 0.6335 0.6336 0.6337 0.6337
3958.000000 0.6338 0.6338 0.6339 0.6339 0.6340
3953.000000 0.6340 0.6341 0.6341 0.6342 0.6342
3948.000000 0.6343 0.6343 0.6343 0.6343 0.6343
3943.000000 0.6343 0.6343 0.6343 0.6343 0.6343
3938.000000 0.6343 0.6343 0.6343 0.6344 0.6346
3933.000000 0.6348 0.6350 0.6351 0.6353 0.6354
3928.000000 0.6356 0.6358 0.6360 0.6360 0.6362
3923.000000 0.6364 0.6366 0.6368 0.6371 0.6374
3918.000000 0.6377 0.6380 0.6383 0.6386 0.6389
3913.000000 0.6391 0.6394 0.6397 0.6400 0.6401
3908.000000 0.6404 0.6405 0.6406 0.6406 0.6407
3903.000000 0.6408 0.6408 0.6410 0.6411 0.6411
3898.000000 0.6412 0.6414 0.6415 0.6415 0.6417
3893.000000 0.6417 0.6418 0.6418 0.6419 0.6421
3888.000000 0.6421 0.6422 0.6424 0.6425 0.6425
3883.000000 0.6425 0.6426 0.6428 0.6428 0.6430
3878.000000 0.6431 0.6432 0.6433 0.6434 0.6435
3873.000000 0.6436 0.6437 0.6438 0.6439 0.6440
3868.000000 0.6441 0.6442 0.6443 0.6444 0.6445
3863.000000 0.6446 0.6447 0.6448 0.6449 0.6450
3858.000000 0.6451 0.6453 0.6454 0.6455 0.6457
3853.000000 0.6458 0.6461 0.6462 0.6465 0.6467
3848.000000 0.6468 0.6471 0.6472 0.6475 0.6478
3843.000000 0.6482 0.6486 0.6490 0.6494 0.6499
3838.000000 0.6504 0.6508 0.6507 0.6507 0.6501
3833.000000 0.6493 0.6485 0.6475 0.6467 0.6457
3828.000000 0.6447 0.6441 0.6436 0.6438 0.6440
3823.000000 0.6442 0.6444 0.6446 0.6448 0.6449
3818.000000 0.6451 0.6451 0.6453 0.6454 0.6455
3813.000000 0.6455 0.6456 0.6456 0.6457 0.6457
3808.000000 0.6458 0.6458 0.6458 0.6458 0.6460
3803.000000 0.6461 0.6461 0.6461 0.6461 0.6461
3798.000000 0.6460 0.6458 0.6458 0.6458 0.6457
3793.000000 0.6456 0.6455 0.6455 0.6456 0.6456
3788.000000 0.6456 0.6456 0.6457 0.6457 0.6458
3783.000000 0.6460 0.6462 0.6465 0.6469 0.6472
3778.000000 0.6475 0.6478 0.6483 0.6486 0.6490
3773.000000 0.6493 0.6496 0.6498 0.6501 0.6501
3768.000000 0.6503 0.6504 0.6505 0.6506 0.6507
3763.000000 0.6507 0.6508 0.6508 0.6510 0.6511
3758.000000 0.6511 0.6512 0.6514 0.6514 0.6515
3753.000000 0.6515 0.6517 0.6518 0.6518 0.6519
3748.000000 0.6521 0.6521 0.6521 0.6521 0.6522
3743.000000 0.6522 0.6522 0.6522 0.6522 0.6518
3738.000000 0.6515 0.6511 0.6508 0.6508 0.6507
3733.000000 0.6507 0.6508 0.6508 0.6508 0.6508
3728.000000 0.6510 0.6510 0.6511 0.6511 0.6512
3723.000000 0.6514 0.6515 0.6517 0.6518 0.6519
3718.000000 0.6521 0.6524 0.6525 0.6526 0.6528
3713.000000 0.6528 0.6528 0.6528 0.6528 0.6528
3708.000000 0.6528 0.6526 0.6526 0.6525 0.6525
3703.000000 0.6525 0.6525 0.6524 0.6524 0.6522
3698.000000 0.6522 0.6522 0.6524 0.6525 0.6526
3693.000000 0.6528 0.6530 0.6531 0.6533 0.6534
3688.000000 0.6535 0.6536 0.6538 0.6539 0.6540
3683.000000 0.6540 0.6541 0.6541 0.6542 0.6542
3678.000000 0.6543 0.6543 0.6544 0.6544 0.6544
3673.000000 0.6544 0.6545 0.6545 0.6545 0.6545
3668.000000 0.6544 0.6542 0.6541 0.6539 0.6538
3663.000000 0.6536 0.6535 0.6534 0.6533 0.6530
3658.000000 0.6528 0.6524 0.6521 0.6518 0.6515
3653.000000 0.6511 0.6508 0.6505 0.6501 0.6501
3648.000000 0.6501 0.6501 0.6501 0.6501 0.6501
3643.000000 0.6503 0.6504 0.6506 0.6508 0.6510
3638.000000 0.6511 0.6514 0.6515 0.6518 0.6521
3633.000000 0.6522 0.6525 0.6526 0.6530 0.6532
3628.000000 0.6534 0.6536 0.6539 0.6541 0.6544
3623.000000 0.6546 0.6549 0.6551 0.6554 0.6556
3618.000000 0.6558 0.6561 0.6564 0.6562 0.6561
3613.000000 0.6558 0.6557 0.6554 0.6551 0.6549
3608.000000 0.6547 0.6544 0.6542 0.6539 0.6536
3603.000000 0.6532 0.6528 0.6528 0.6526 0.6525
3598.000000 0.6525 0.6524 0.6522 0.6521 0.6521
3593.000000 0.6519 0.6519 0.6518 0.6518 0.6517
3588.000000 0.6515 0.6515 0.6514 0.6512 0.6511
3583.000000 0.6511 0.6511 0.6510 0.6510 0.6510
3578.000000 0.6511 0.6511 0.6511 0.6511 0.6511
3573.000000 0.6511 0.6512 0.6512 0.6512 0.6512
3568.000000 0.6514 0.6514 0.6515 0.6515 0.6515
3563.000000 0.6515 0.6515 0.6515 0.6515 0.6514
3558.000000 0.6512 0.6511 0.6511 0.6510 0.6510
3553.000000 0.6508 0.6508 0.6507 0.6507 0.6506
3548.000000 0.6505 0.6504 0.6503 0.6501 0.6501
3543.000000 0.6501 0.6500 0.6500 0.6500 0.6499
3538.000000 0.6499 0.6498 0.6498 0.6497 0.6497
3533.000000 0.6496 0.6495 0.6494 0.6494 0.6493
3528.000000 0.6492 0.6491 0.6491 0.6490 0.6489
3523.000000 0.6488 0.6488 0.6487 0.6486 0.6485
3518.000000 0.6485 0.6484 0.6484 0.6483 0.6482
3513.000000 0.6481 0.6481 0.6480 0.6478 0.6478
3508.000000 0.6478 0.6476 0.6475 0.6475 0.6475
3503.000000 0.6474 0.6472 0.6471 0.6471 0.6471
3498.000000 0.6469 0.6468 0.6467 0.6464 0.6461
3493.000000 0.6458 0.6456 0.6453 0.6451 0.6448
3488.000000 0.6445 0.6442 0.6440 0.6436 0.6432
3483.000000 0.6430 0.6428 0.6425 0.6425 0.6424
3478.000000 0.6422 0.6421 0.6419 0.6418 0.6417
3473.000000 0.6415 0.6414 0.6412 0.6411 0.6411
3468.000000 0.6410 0.6408 0.6408 0.6408 0.6408
3463.000000 0.6407 0.6406 0.6405 0.6405 0.6404
3458.000000 0.6403 0.6401 0.6401 0.6401 0.6400
3453.000000 0.6400 0.6400 0.6403 0.6406 0.6408
3448.000000 0.6411 0.6414 0.6417 0.6419 0.6422
3443.000000 0.6425 0.6428 0.6430 0.6430 0.6430
3438.000000 0.6426 0.6421 0.6415 0.6411 0.6406
3433.000000 0.6400 0.6395 0.6394 0.6394 0.6393
3428.000000 0.6393 0.6392 0.6391 0.6391 0.6391
3423.000000 0.6390 0.6390 0.6390 0.6390 0.6390
3418.000000 0.6390 0.6390 0.6390 0.6390 0.6390
3413.000000 0.6390 0.6390 0.6390 0.6390 0.6390
3408.000000 0.6390 0.6390 0.6391 0.6392 0.6393
3403.000000 0.6390 0.6388 0.6384 0.6380 0.6376
3398.000000 0.6373 0.6369 0.6365 0.6364 0.6364
3393.000000 0.6364 0.6364 0.6364 0.6364 0.6364
3388.000000 0.6364 0.6364 0.6364 0.6364 0.6364
3383.000000 0.6362 0.6362 0.6362 0.6362 0.6362
3378.000000 0.6362 0.6362 0.6362 0.6362 0.6362
3373.000000 0.6360 0.6360 0.6360 0.6360 0.6360
3368.000000 0.6360 0.6360 0.6360 0.6360 0.6360
3363.000000 0.6359 0.6359 0.6358 0.6358 0.6356
3358.000000 0.6355 0.6353 0.6351 0.6349 0.6340
3353.000000 0.6345 0.6344 0.6342 0.6340 0.6338
3348.000000 0.6336 0.6333 0.6331 0.6324 0.6317
3343.000000 0.6310 0.6303 0.6295 0.6288 0.6281
3338.000000 0.6274 0.6267 0.6260 0.6252 0.6245
3333.000000 0.6237 0.6230 0.6222 0.6215 0.6207
3328.000000 0.6199 0.6191 0.6184 0.6176 0.6169
3323.000000 0.6160 0.6154 0.6146 0.6138 0.6130
3318.000000 0.6123 0.6115 0.6107 0.6099 0.6091
3313.000000 0.6082 0.6074 0.6066 0.6058 0.6050
3308.000000 0.6042 0.6033 0.6025 0.6017 0.6009
3303.000000 0.6000 0.5992 0.5984 0.5976 0.5968
3298.000000 0.5960 0.5952 0.5944 0.5936 0.5928
3293.000000 0.5920 0.5912 0.5904 0.5896 0.5888
3288.000000 0.5880 0.5872 0.5864 0.5856 0.5848
3283.000000 0.5840 0.5832 0.5824 0.5816 0.5808
3278.000000 0.5800 0.5790 0.5781 0.5771 0.5762
3273.000000 0.5752 0.5743 0.5733 0.5724 0.5714
3268.000000 0.5705 0.5696 0.5687 0.5677 0.5668
3263.000000 0.5658 0.5649 0.5639 0.5630 0.5620
3258.000000 0.5610 0.5597 0.5585 0.5573 0.5560
3253.000000 0.5548 0.5536 0.5524 0.5512 0.5499
3248.000000 0.5487 0.5472 0.5458 0.5442 0.5427
3243.000000 0.5410 0.5393 0.5375 0.5358 0.5340
3238.000000 0.5322 0.5304 0.5287 0.5269 0.5251
3233.000000 0.5233 0.5216 0.5198 0.5180 0.5162
3228.000000 0.5145 0.5127 0.5109 0.5091 0.5074
3223.000000 0.5054 0.5034 0.5012 0.4990 0.4968
3218.000000 0.4946 0.4924 0.4902 0.4862 0.4822
3213.000000 0.4778 0.4734 0.4687 0.4640 0.4593
3208.000000 0.4546 0.4497 0.4448 0.4398 0.4349
3203.000000 0.4301 0.4253 0.4210 0.4170 0.4128
3198.000000 0.4087 0.4047 0.4007 0.3972 0.3938
3193.000000 0.3904 0.3870 0.3834 0.3800 0.3762
3188.000000 0.3726 0.3680 0.3637 0.3580 0.3525
3183.000000 0.3495 0.3466 0.3437 0.3409 0.3393
3178.000000 0.3377 0.3371 0.3366 0.3359 0.3355
3173.000000 0.3350 0.3345 0.3339 0.3334 0.3329
3168.000000 0.3324 0.3321 0.3309 0.3316 0.3314
3163.000000 0.3318 0.3323 0.3334 0.3345 0.3356
3158.000000 0.3366 0.3378 0.3389 0.3408 0.3428
3153.000000 0.3449 0.3470 0.3491 0.3512 0.3539
3148.000000 0.3564 0.3594 0.3624 0.3654 0.3684
3143.000000 0.3716 0.3750 0.3782 0.3816 0.3834
3138.000000 0.3853 0.3866 0.3882 0.3884 0.3887
3133.000000 0.3889 0.3891 0.3893 0.3895 0.3897
3128.000000 0.3899 0.3903 0.3907 0.3918 0.3930
3123.000000 0.3943 0.3957 0.3970 0.3982 0.3999
3118.000000 0.4014 0.4025 0.4034 0.4034 0.4034
3113.000000 0.4034 0.4034 0.4034 0.4034 0.4034
3108.000000 0.4034 0.4034 0.4034 0.4032 0.4029
3103.000000 0.4026 0.4024 0.4021 0.4018 0.4014
3098.000000 0.4012 0.4000 0.3989 0.3972 0.3955
3093.000000 0.3937 0.3920 0.3902 0.3884 0.3866
3088.000000 0.3850 0.3832 0.3814 0.3798 0.3780
3083.000000 0.3762 0.3744 0.3725 0.3707 0.3688
3078.000000 0.3670 0.3650 0.3632 0.3614 0.3596
3073.000000 0.3580 0.3566 0.3552 0.3537 0.3522
3068.000000 0.3508 0.3493 0.3479 0.3464 0.3449
3063.000000 0.3434 0.3421 0.3409 0.3397 0.3384
3058.000000 0.3373 0.3362 0.3350 0.3341 0.3332
3053.000000 0.3323 0.3314 0.3305 0.3296 0.3287
3048.000000 0.3278 0.3268 0.3260 0.3256 0.3250
3043.000000 0.3246 0.3242 0.3237 0.3232 0.3227
3038.000000 0.3223 0.3218 0.3214 0.3209 0.3204
3033.000000 0.3199 0.3194 0.3185 0.3179 0.3171
3028.000000 0.3163 0.3155 0.3148 0.3140 0.3132
3023.000000 0.3121 0.3111 0.3100 0.3089 0.3078
3018.000000 0.3067 0.3031 0.2996 0.2957 0.2918
3013.000000 0.2881 0.2845 0.2831 0.2818 0.2803
3008.000000 0.2789 0.2790 0.2792 0.2796 0.2800
3003.000000 0.2802 0.2804 0.2805 0.2807 0.2808
2998.000000 0.2809 0.2810 0.2810 0.2810 0.2808
2993.000000 0.2803 0.2798 0.2787 0.2777 0.2764
2988.000000 0.2752 0.2697 0.2643 0.2589 0.2534
2983.000000 0.2492 0.2449 0.2417 0.2384 0.2353
2978.000000 0.2321 0.2287 0.2254 0.2212 0.2170
2973.000000 0.2128 0.2085 0.2044 0.2003 0.1913
2968.000000 0.1824 0.1736 0.1650 0.1579 0.1508
2963.000000 0.1480 0.1453 0.1433 0.1414 0.1405
2958.000000 0.1396 0.1392 0.1391 0.1388 0.1385
2953.000000 0.1382 0.1380 0.1376 0.1373 0.1369
2948.000000 0.1366 0.1362 0.1359 0.1355 0.1352
2943.000000 0.1348 0.1345 0.1341 0.1338 0.1335
2938.000000 0.1332 0.1328 0.1325 0.1309 0.1292
2933.000000 0.1244 0.1196 0.1137 0.1079 0.1067
2928.000000 0.1056 0.1050 0.1045 0.1045 0.1046
2923.000000 0.1046 0.1046 0.1046 0.1048 0.1054
2918.000000 0.1061 0.1070 0.1079 0.1096 0.1113
2913.000000 0.1144 0.1175 0.1198 0.1221 0.1242
2908.000000 0.1263 0.1282 0.1302 0.1311 0.1320
2903.000000 0.1329 0.1338 0.1346 0.1356 0.1364
2898.000000 0.1373 0.1392 0.1413 0.1442 0.1473
2893.000000 0.1521 0.1570 0.1603 0.1635 0.1649
2888.000000 0.1662 0.1669 0.1702 0.1678 0.1679
2883.000000 0.1682 0.1684 0.1686 0.1690 0.1693
2878.000000 0.1696 0.1701 0.1701 0.1701 0.1696
2873.000000 0.1679 0.1663 0.1634 0.1606 0.1590
2868.000000 0.1575 0.1568 0.1562 0.1557 0.1553
2863.000000 0.1549 0.1545 0.1541 0.1537 0.1534
2858.000000 0.1532 0.1532 0.1533 0.1550 0.1513
2853.000000 0.1602 0.1635 0.1670 0.1704 0.1740
2848.000000 0.1777 0.1815 0.1854 0.1892 0.1931
2843.000000 0.1969 0.2008 0.2040 0.2073 0.2102
2838.000000 0.2131 0.2160 0.2189 0.2217 0.2246
2833.000000 0.2270 0.2295 0.2311 0.2327 0.2343
2828.000000 0.2360 0.2376 0.2392 0.2408 0.2425
2823.000000 0.2441 0.2457 0.2472 0.2488 0.2501
2818.000000 0.2514 0.2527 0.2541 0.2554 0.2568
2813.000000 0.2581 0.2594 0.2607 0.2621 0.2634
2808.000000 0.2648 0.2661 0.2674 0.2687 0.2700
2803.000000 0.2713 0.2726 0.2739 0.2752 0.2764
2798.000000 0.2777 0.2789 0.2801 0.2812 0.2824
2793.000000 0.2834 0.2847 0.2858 0.2870 0.2881
2788.000000 0.2892 0.2898 0.2905 0.2910 0.2915
2783.000000 0.2920 0.2926 0.2931 0.2935 0.2939
2778.000000 0.2942 0.2944 0.2947 0.2949 0.2952
2773.000000 0.2954 0.2957 0.2958 0.2960 0.2960
2768.000000 0.2960 0.2960 0.2960 0.2960 0.2960
2763.000000 0.2961 0.2963 0.2968 0.2974 0.2979
2758.000000 0.2984 0.2990 0.2996 0.3003 0.3011
2753.000000 0.3017 0.3024 0.3027 0.3030 0.3033
2748.000000 0.3035 0.3039 0.3042 0.3043 0.3044
2743.000000 0.3045 0.3046 0.3047 0.3048 0.3049
2738.000000 0.3049 0.3049 0.3049 0.3025 0.3001
2733.000000 0.2989 0.2977 0.2972 0.2967 0.2962
2728.000000 0.2957 0.2954 0.2952 0.2950 0.2949
2723.000000 0.2947 0.2945 0.2943 0.2942 0.2940
2718.000000 0.2939 0.2937 0.2935 0.2934 0.2932
2713.000000 0.2931 0.2931 0.2932 0.2934 0.2939
2708.000000 0.2943 0.2947 0.2951 0.2954 0.2958
2703.000000 0.2962 0.2966 0.2971 0.2977 0.2984
2698.000000 0.2994 0.3003 0.3012 0.3020 0.3029
2693.000000 0.3037 0.3046 0.3055 0.3064 0.3073
2688.000000 0.3082 0.3094 0.3106 0.3118 0.3130
2683.000000 0.3142 0.3155 0.3164 0.3173 0.3180
2678.000000 0.3188 0.3195 0.3202 0.3206 0.3209
2673.000000 0.3210 0.3212 0.3214 0.3216 0.3216
2668.000000 0.3218 0.3220 0.3222 0.3223 0.3223
2663.000000 0.3223 0.3221 0.3220 0.3218 0.3216
2658.000000 0.3214 0.3212 0.3209 0.3205 0.3202
2653.000000 0.3199 0.3196 0.3193 0.3190 0.3184
2648.000000 0.3179 0.3165 0.3151 0.3134 0.3119
2643.000000 0.3100 0.3082 0.3064 0.3046 0.3031
2638.000000 0.3016 0.3003 0.2990 0.2977 0.2964
2633.000000 0.2951 0.2938 0.2930 0.2922 0.2915
2628.000000 0.2908 0.2902 0.2897 0.2891 0.2884
2623.000000 0.2880 0.2876 0.2874 0.2873 0.2871
2618.000000 0.2869 0.2867 0.2866 0.2864 0.2862
2613.000000 0.2860 0.2858 0.2857 0.2857 0.2857
2608.000000 0.2858 0.2859 0.2860 0.2861 0.2862
2603.000000 0.2865 0.2869 0.2872 0.2876 0.2879
2598.000000 0.2882 0.2884 0.2889 0.2892 0.2896
2593.000000 0.2906 0.2916 0.2928 0.2941 0.2953
2588.000000 0.2966 0.2981 0.2996 0.3013 0.3030
2583.000000 0.3047 0.3064 0.3081 0.3098 0.3118
2578.000000 0.3138 0.3158 0.3179 0.3199 0.3218
2573.000000 0.3239 0.3259 0.3279 0.3299 0.3316
2568.000000 0.3332 0.3350 0.3368 0.3368 0.3371
2563.000000 0.3372 0.3373 0.3374 0.3376 0.3377
2558.000000 0.3378 0.3379 0.3380 0.3382 0.3382
2553.000000 0.3382 0.3384 0.3384 0.3386 0.3387
2548.000000 0.3388 0.3388 0.3389 0.3390 0.3391
2543.000000 0.3391 0.3392 0.3393 0.3394 0.3395
2538.000000 0.3396 0.3396 0.3396 0.3396 0.3397
2533.000000 0.3397 0.3397 0.3397 0.3398 0.3398
2528.000000 0.3398 0.3398 0.3399 0.3404 0.3409
2523.000000 0.3416 0.3424 0.3432 0.3440 0.3454
2518.000000 0.3468 0.3482 0.3498 0.3512 0.3528
2513.000000 0.3542 0.3557 0.3573 0.3590 0.3607
2508.000000 0.3624 0.3641 0.3658 0.3675 0.3692
2503.000000 0.3709 0.3726 0.3742 0.3759 0.3774
2498.000000 0.3790 0.3805 0.3820 0.3834 0.3850
2493.000000 0.3866 0.3882 0.3897 0.3912 0.3929
2488.000000 0.3945 0.3962 0.3980 0.3999 0.4016
2483.000000 0.4034 0.4052 0.4070 0.4088 0.4105
2478.000000 0.4123 0.4134 0.4146 0.4155 0.4165
2473.000000 0.4174 0.4184 0.4193 0.4203 0.4212
2468.000000 0.4222 0.4231 0.4241 0.4250 0.4260
2463.000000 0.4269 0.4279 0.4288 0.4298 0.4306
2458.000000 0.4315 0.4323 0.4332 0.4340 0.4349
2453.000000 0.4358 0.4367 0.4375 0.4384 0.4392
2448.000000 0.4401 0.4409 0.4418 0.4426 0.4435
2443.000000 0.4443 0.4452 0.4460 0.4469 0.4479
2438.000000 0.4490 0.4500 0.4510 0.4520 0.4531
2433.000000 0.4541 0.4551 0.4556 0.4562 0.4568
2428.000000 0.4574 0.4579 0.4585 0.4590 0.4596
2423.000000 0.4603 0.4610 0.4620 0.4630 0.4640
2418.000000 0.4650 0.4659 0.4669 0.4687 0.4705
2413.000000 0.4731 0.4757 0.4782 0.4808 0.4827
2408.000000 0.4846 0.4859 0.4872 0.4885 0.4898
2403.000000 0.4910 0.4924 0.4936 0.4949 0.4960
2398.000000 0.4972 0.4983 0.4994 0.5005 0.5016
2393.000000 0.5027 0.5038 0.5049 0.5060 0.5071
2388.000000 0.5082 0.5093 0.5104 0.5115 0.5126
2383.000000 0.5133 0.5141 0.5147 0.5153 0.5159
2378.000000 0.5165 0.5171 0.5177 0.5183 0.5189
2373.000000 0.5195 0.5201 0.5207 0.5214 0.5220
2368.000000 0.5226 0.5232 0.5238 0.5246 0.5255
2363.000000 0.5262 0.5272 0.5280 0.5289 0.5309
2358.000000 0.5329 0.5352 0.5375 0.5385 0.5396
2353.000000 0.5397 0.5399 0.5400 0.5401 0.5402
2348.000000 0.5403 0.5404 0.5406 0.5407 0.5408
2343.000000 0.5410 0.5412 0.5416 0.5420 0.5424
2338.000000 0.5429 0.5433 0.5437 0.5441 0.5446
2333.000000 0.5450 0.5454 0.5458 0.5462 0.5467
2328.000000 0.5471 0.5475 0.5479 0.5483 0.5487
2323.000000 0.5491 0.5495 0.5499 0.5503 0.5507
2318.000000 0.5512 0.5517 0.5522 0.5527 0.5533
2313.000000 0.5538 0.5544 0.5549 0.5555 0.5560
2308.000000 0.5566 0.5570 0.5575 0.5579 0.5584
2303.000000 0.5588 0.5593 0.5597 0.5602 0.5605
2298.000000 0.5605 0.5605 0.5602 0.5599 0.5596
2293.000000 0.5593 0.5590 0.5586 0.5583 0.5580
2288.000000 0.5577 0.5574 0.5571 0.5569 0.5568
2283.000000 0.5566 0.5565 0.5564 0.5562 0.5562
2278.000000 0.5560 0.5559 0.5558 0.5557 0.5556
2273.000000 0.5555 0.5554 0.5554 0.5554 0.5555
2268.000000 0.5559 0.5565 0.5571 0.5577 0.5583
2263.000000 0.5590 0.5597 0.5605 0.5612 0.5620
2258.000000 0.5628 0.5635 0.5643 0.5649 0.5656
2253.000000 0.5659 0.5662 0.5666 0.5670 0.5673
2248.000000 0.5677 0.5680 0.5684 0.5687 0.5691
2243.000000 0.5694 0.5698 0.5701 0.5705 0.5706
2238.000000 0.5706 0.5706 0.5705 0.5704 0.5703
2233.000000 0.5702 0.5671 0.5699 0.5697 0.5691
2228.000000 0.5685 0.5679 0.5673 0.5667 0.5662
2223.000000 0.5657 0.5652 0.5651 0.5650 0.5649
2218.000000 0.5648 0.5647 0.5646 0.5645 0.5644
2213.000000 0.5644 0.5644 0.5644 0.5647 0.5651
2208.000000 0.5655 0.5658 0.5662 0.5666 0.5670
2203.000000 0.5674 0.5678 0.5681 0.5685 0.5687
2198.000000 0.5689 0.5691 0.5694 0.5696 0.5698
2193.000000 0.5700 0.5703 0.5704 0.5705 0.5705
2188.000000 0.5705 0.5705 0.5705 0.5705 0.5705
2183.000000 0.5705 0.5705 0.5703 0.5701 0.5697
2178.000000 0.5694 0.5690 0.5687 0.5683 0.5680
2173.000000 0.5676 0.5673 0.5669 0.5665 0.5659
2168.000000 0.5654 0.5648 0.5643 0.5637 0.5631
2163.000000 0.5625 0.5620 0.5614 0.5609 0.5602
2158.000000 0.5596 0.5589 0.5582 0.5575 0.5568
2153.000000 0.5560 0.5554 0.5546 0.5539 0.5532
2148.000000 0.5525 0.5518 0.5510 0.5504 0.5497
2143.000000 0.5490 0.5483 0.5476 0.5470 0.5464
2138.000000 0.5459 0.5453 0.5447 0.5442 0.5437
2133.000000 0.5433 0.5429 0.5425 0.5421 0.5417
2128.000000 0.5414 0.5410 0.5406 0.5404 0.5402
2123.000000 0.5401 0.5414 0.5404 0.5409 0.5414
2118.000000 0.5419 0.5424 0.5429 0.5434 0.5439
2113.000000 0.5444 0.5449 0.5470 0.5491 0.5503
2108.000000 0.5515 0.5527 0.5539 0.5551 0.5562
2103.000000 0.5575 0.5588 0.5600 0.5612 0.5623
2098.000000 0.5635 0.5646 0.5658 0.5669 0.5681
2093.000000 0.5692 0.5703 0.5714 0.5726 0.5737
2088.000000 0.5749 0.5760 0.5771 0.5781 0.5792
2083.000000 0.5802 0.5812 0.5822 0.5832 0.5842
2078.000000 0.5852 0.5862 0.5872 0.5881 0.5891
2073.000000 0.5899 0.5908 0.5917 0.5926 0.5935
2068.000000 0.5944 0.5952 0.5960 0.5970 0.5979
2063.000000 0.5984 0.5990 0.5994 0.5999 0.6003
2058.000000 0.6008 0.6012 0.6017 0.6021 0.6026
2053.000000 0.6030 0.6035 0.6040 0.6045 0.6049
2048.000000 0.6054 0.6058 0.6062 0.6067 0.6072
2043.000000 0.6076 0.6081 0.6085 0.6090 0.6095
2038.000000 0.6100 0.6105 0.6110 0.6115 0.6120
2033.000000 0.6125 0.6130 0.6135 0.6140 0.6145
2028.000000 0.6150 0.6154 0.6159 0.6164 0.6169
2023.000000 0.6174 0.6179 0.6184 0.6190 0.6196
2018.000000 0.6202 0.6207 0.6212 0.6219 0.6225
2013.000000 0.6230 0.6236 0.6242 0.6248 0.6256
2008.000000 0.6264 0.6273 0.6282 0.6291 0.6300
2003.000000 0.6309 0.6318 0.6336 0.6354 0.6373
1998.000000 0.6392 0.6411 0.6421 0.6426 0.6432
1993.000000 0.6432 0.6430 0.6426 0.6425 0.6425
1988.000000 0.6425 0.6425 0.6428 0.6430 0.6432
1983.000000 0.6435 0.6439 0.6442 0.6446 0.6449
1978.000000 0.6453 0.6456 0.6460 0.6462 0.6465
1973.000000 0.6467 0.6468 0.6469 0.6471 0.6472
1968.000000 0.6475 0.6475 0.6478 0.6478 0.6481
1963.000000 0.6482 0.6484 0.6486 0.6488 0.6490
1958.000000 0.6492 0.6494 0.6496 0.6498 0.6500
1953.000000 0.6501 0.6503 0.6505 0.6507 0.6508
1948.000000 0.6511 0.6511 0.6514 0.6515 0.6517
1943.000000 0.6518 0.6519 0.6521 0.6522 0.6524
1938.000000 0.6525 0.6526 0.6528 0.6530 0.6532
1933.000000 0.6533 0.6534 0.6536 0.6537 0.6539
1928.000000 0.6540 0.6542 0.6543 0.6544 0.6546
1923.000000 0.6547 0.6549 0.6551 0.6556 0.6560
1918.000000 0.6564 0.6568 0.6571 0.6575 0.6580
1913.000000 0.6584 0.6588 0.6592 0.6596 0.6600
1908.000000 0.6604 0.6604 0.6605 0.6605 0.6605
1903.000000 0.6605 0.6605 0.6605 0.6605 0.6605
1898.000000 0.6605 0.6605 0.6605 0.6605 0.6605
1893.000000 0.6605 0.6605 0.6605 0.6605 0.6606
1888.000000 0.6606 0.6606 0.6606 0.6606 0.6606
1883.000000 0.6606 0.6606 0.6607 0.6607 0.6607
1878.000000 0.6607 0.6608 0.6608 0.6608 0.6608
1873.000000 0.6608 0.6610 0.6610 0.6610 0.6611
1868.000000 0.6611 0.6611 0.6611 0.6611 0.6614
1863.000000 0.6617 0.6618 0.6621 0.6622 0.6625
1858.000000 0.6626 0.6628 0.6632 0.6634 0.6636
1853.000000 0.6638 0.6640 0.6642 0.6643 0.6645
1848.000000 0.6645 0.6645 0.6641 0.6638 0.6635
1843.000000 0.6632 0.6621 0.6611 0.6603 0.6594
1838.000000 0.6587 0.6581 0.6574 0.6567 0.6562
1833.000000 0.6562 0.6564 0.6564 0.6567 0.6568
1828.000000 0.6568 0.6568 0.6568 0.6568 0.6568
1823.000000 0.6568 0.6568 0.6568 0.6568 0.6568
1818.000000 0.6568 0.6568 0.6618 0.6635 0.6636
1813.000000 0.6618 0.6600 0.6585 0.6580 0.6575
1808.000000 0.6575 0.6575 0.6580 0.6584 0.6589
1803.000000 0.6594 0.6599 0.6599 0.6598 0.6578
1798.000000 0.6562 0.6564 0.6565 0.6567 0.6568
1793.000000 0.6571 0.6575 0.6581 0.6586 0.6591
1788.000000 0.6596 0.6599 0.6601 0.6604 0.6606
1783.000000 0.6608 0.6611 0.6614 0.6615 0.6617
1778.000000 0.6618 0.6618 0.6621 0.6621 0.6618
1773.000000 0.6615 0.6612 0.6611 0.6608 0.6605
1768.000000 0.6604 0.6607 0.6608 0.6608 0.6608
1763.000000 0.6607 0.6606 0.6605 0.6603 0.6601
1758.000000 0.6599 0.6596 0.6593 0.6589 0.6586
1753.000000 0.6583 0.6580 0.6580 0.6580 0.6580
1748.000000 0.6580 0.6580 0.6578 0.6578 0.6578
1743.000000 0.6576 0.6572 0.6565 0.6560 0.6554
1738.000000 0.6549 0.6548 0.6546 0.6544 0.6542
1733.000000 0.6540 0.6539 0.6530 0.6521 0.6511
1728.000000 0.6503 0.6489 0.6474 0.6458 0.6444
1723.000000 0.6430 0.6422 0.6415 0.6408 0.6401
1718.000000 0.6395 0.6389 0.6383 0.6378 0.6372
1713.000000 0.6367 0.6360 0.6356 0.6350 0.6343
1708.000000 0.6336 0.6330 0.6323 0.6316 0.6308
1703.000000 0.6300 0.6293 0.6285 0.6277 0.6270
1698.000000 0.6257 0.6244 0.6231 0.6218 0.6205
1693.000000 0.6192 0.6179 0.6166 0.6154 0.6142
1688.000000 0.6130 0.6119 0.6107 0.6098 0.6089
1683.000000 0.6080 0.6078 0.6077 0.6075 0.6073
1678.000000 0.6060 0.6039 0.6017 0.5931 0.5859
1673.000000 0.5812 0.5765 0.5729 0.5715 0.5701
1668.000000 0.5686 0.5671 0.5587 0.5464 0.5353
1663.000000 0.5249 0.5144 0.5083 0.5023 0.4993
1658.000000 0.4962 0.4933 0.4910 0.4887 0.4864
1653.000000 0.4835 0.4805 0.4775 0.4734 0.4471
1648.000000 0.4392 0.4371 0.4349 0.4328 0.4288
1643.000000 0.4219 0.4098 0.3921 0.3728 0.3614
1638.000000 0.3512 0.3495 0.3484 0.3473 0.3462
1633.000000 0.3430 0.3276 0.3022 0.2868 0.2739
1628.000000 0.2673 0.2624 0.2551 0.2464 0.2363
1623.000000 0.2327 0.2314 0.2302 0.2166 0.1874
1618.000000 0.1811 0.1785 0.1773 0.1764 0.1754
1613.000000 0.1744 0.1734 0.1498 0.1491 0.1484
1608.000000 0.1477 0.1470 0.1465 0.1460 0.1454
1603.000000 0.1448 0.1439 0.1430 0.1420 0.1411
1598.000000 0.1398 0.1379 0.1361 0.1342 0.1324
1593.000000 0.1304 0.1286 0.1270 0.1254 0.1238
1588.000000 0.1220 0.1201 0.1192 0.1187 0.1159
1583.000000 0.1181 0.1196 0.1212 0.1250 0.1296
1578.000000 0.1357 0.1419 0.1477 0.1534 0.1594
1573.000000 0.1678 0.1762 0.1850 0.1939 0.2037
1568.000000 0.2190 0.2310 0.2404 0.2497 0.2580
1563.000000 0.2662 0.2752 0.2848 0.2897 0.2927
1558.000000 0.2957 0.2996 0.3038 0.3081 0.3124
1553.000000 0.3183 0.3212 0.3236 0.3259 0.3258
1548.000000 0.3280 0.3256 0.3255 0.3244 0.3226
1543.000000 0.3208 0.3178 0.3157 0.3144 0.3132
1538.000000 0.3125 0.3112 0.3077 0.3017 0.2634
1533.000000 0.2250 0.2112 0.2100 0.1668 0.1641
1528.000000 0.1623 0.1614 0.1613 0.1612 0.1611
1523.000000 0.1614 0.1617 0.1617 0.1617 0.1627
1518.000000 0.1629 0.1634 0.1636 0.1640 0.1644
1513.000000 0.1650 0.1662 0.1675 0.1686 0.1699
1508.000000 0.1725 0.1751 0.1778 0.1814 0.1854
1503.000000 0.1899 0.1954 0.2009 0.2070 0.2134
1498.000000 0.2169 0.2205 0.2322 0.2402 0.2485
1493.000000 0.2583 0.2661 0.2700 0.2739 0.2783
1488.000000 0.2830 0.2877 0.2932 0.3000 0.3077
1483.000000 0.3184 0.3430 0.3446 0.3480 0.3538
1478.000000 0.3643 0.3723 0.3752 0.3774 0.3792
1473.000000 0.3809 0.3821 0.3832 0.3866 0.3839
1468.000000 0.3816 0.3718 0.3664 0.3630 0.3603
1463.000000 0.3589 0.3575 0.3562 0.3550 0.3544
1458.000000 0.3520 0.3576 0.3597 0.3624 0.3650
1453.000000 0.3675 0.3724 0.3762 0.3771 0.3789
1448.000000 0.3766 0.3762 0.3668 0.3476 0.3284
1443.000000 0.3091 0.2921 0.2901 0.2902 0.3068
1438.000000 0.3298 0.3528 0.3759 0.3989 0.4220
1433.000000 0.4279 0.4297 0.4298 0.4299 0.4325
1428.000000 0.4323 0.4308 0.4259 0.4037 0.3812
1423.000000 0.3588 0.3364 0.3140 0.2916 0.2746
1418.000000 0.2691 0.2657 0.2593 0.2165 0.1875
1413.000000 0.1840 0.1819 0.1798 0.1787 0.1784
1408.000000 0.1779 0.1811 0.1864 0.1984 0.2085
1403.000000 0.2146 0.2189 0.2233 0.2280 0.2351
1398.000000 0.2422 0.2485 0.2546 0.2607 0.2671
1393.000000 0.2742 0.2813 0.2883 0.2957 0.3031
1388.000000 0.3105 0.3179 0.3288 0.3389 0.3432
1383.000000 0.3474 0.3516 0.3570 0.3624 0.3679
1378.000000 0.3727 0.3773 0.3818 0.3872 0.3949
1373.000000 0.4082 0.4231 0.4360 0.4446 0.4531
1368.000000 0.4631 0.4709 0.4778 0.4851 0.4949
1363.000000 0.4962 0.4977 0.5010 0.5144 0.5196
1358.000000 0.5254 0.5278 0.5292 0.5310 0.5299
1353.000000 0.5297 0.5285 0.5269 0.5254 0.5238
1348.000000 0.5217 0.5196 0.5173 0.5139 0.5021
1343.000000 0.4898 0.4682 0.4375 0.4080 0.3788
1338.000000 0.3494 0.3200 0.2906 0.2612 0.2318
1333.000000 0.2024 0.1696 0.1707 0.1714 0.1753
1328.000000 0.2084 0.2376 0.2668 0.2959 0.3250
1323.000000 0.3542 0.3832 0.4115 0.4303 0.4390
1318.000000 0.4477 0.4559 0.4640 0.4730 0.4723
1313.000000 0.4716 0.4709 0.4724 0.4740 0.4755
1308.000000 0.4771 0.4823 0.4880 0.4922 0.4965
1303.000000 0.5009 0.5056 0.5103 0.5150 0.5197
1298.000000 0.5244 0.5292 0.5340 0.5387 0.5433
1293.000000 0.5480 0.5526 0.5573 0.5620 0.5668
1288.000000 0.5715 0.5762 0.5809 0.5859 0.5866
1283.000000 0.5874 0.5881 0.5888 0.5896 0.5918
1278.000000 0.5945 0.5972 0.5999 0.6025 0.6052
1273.000000 0.6077 0.6103 0.6136 0.6172 0.6198
1268.000000 0.6219 0.6239 0.6249 0.6253 0.6257
1263.000000 0.6260 0.6265 0.6270 0.6280 0.6291
1258.000000 0.6303 0.6314 0.6328 0.6346 0.6362
1253.000000 0.6381 0.6401 0.6421 0.6441 0.6461
1248.000000 0.6467 0.6472 0.6480 0.6486 0.6492
1243.000000 0.6498 0.6504 0.6508 0.6515 0.6519
1238.000000 0.6525 0.6531 0.6537 0.6542 0.6547
1233.000000 0.6550 0.6553 0.6556 0.6558 0.6561
1228.000000 0.6565 0.6569 0.6575 0.6581 0.6586
1223.000000 0.6591 0.6597 0.6601 0.6607 0.6612
1218.000000 0.6618 0.6622 0.6628 0.6634 0.6640
1213.000000 0.6645 0.6650 0.6660 0.6668 0.6678
1208.000000 0.6691 0.6701 0.6708 0.6714 0.6719
1203.000000 0.6708 0.6698 0.6694 0.6689 0.6685
1198.000000 0.6685 0.6690 0.6695 0.6701 0.6706
1193.000000 0.6711 0.6717 0.6721 0.6730 0.6737
1188.000000 0.6744 0.6751 0.6758 0.6765 0.6772
1183.000000 0.6780 0.6787 0.6794 0.6801 0.6808
1178.000000 0.6814 0.6821 0.6825 0.6830 0.6834
1173.000000 0.6838 0.6868 0.6897 0.6917 0.6917
1168.000000 0.6917 0.6911 0.6901 0.6892 0.6883
1163.000000 0.6874 0.6865 0.6860 0.6854 0.6849
1158.000000 0.6843 0.6838 0.6837 0.6836 0.6838
1153.000000 0.6840 0.6843 0.6843 0.6843 0.6847
1148.000000 0.6847 0.6847 0.6846 0.6846 0.6840
1143.000000 0.6786 0.6711 0.6698 0.6686 0.6661
1138.000000 0.6621 0.6567 0.6478 0.6384 0.6289
1133.000000 0.6194 0.6099 0.6004 0.5971 0.5962
1128.000000 0.5965 0.5969 0.6042 0.6124 0.6179
1123.000000 0.6230 0.6268 0.6288 0.6282 0.6290
1118.000000 0.6273 0.6242 0.6196 0.6123 0.6033
1113.000000 0.5944 0.5855 0.5766 0.5608 0.5635
1108.000000 0.5633 0.5642 0.5660 0.5701 0.5766
1103.000000 0.5850 0.5995 0.6110 0.6215 0.6328
1098.000000 0.6425 0.6504 0.6551 0.6599 0.6644
1093.000000 0.6682 0.6721 0.6761 0.6796 0.6821
1088.000000 0.6847 0.6864 0.6874 0.6885 0.6895
1083.000000 0.6931 0.6975 0.7008 0.7017 0.7024
1078.000000 0.7024 0.7025 0.7025 0.7025 0.7025
1073.000000 0.7026 0.7028 0.7031 0.7033 0.7036
1068.000000 0.7038 0.7040 0.7043 0.7046 0.7049
1063.000000 0.7051 0.7055 0.7058 0.7061 0.7064
1058.000000 0.7065 0.7068 0.7071 0.7074 0.7076
1053.000000 0.7081 0.7084 0.7088 0.7098 0.7108
1048.000000 0.7114 0.7114 0.7114 0.7101 0.7068
1043.000000 0.7051 0.7033 0.7015 0.7001 0.6988
1038.000000 0.6943 0.6796 0.6624 0.6451 0.6280
1033.000000 0.6107 0.5953 0.5960 0.5942 0.5965
1028.000000 0.6095 0.6323 0.6551 0.6742 0.6747
1023.000000 0.6758 0.6803 0.6851 0.6900 0.6949
1018.000000 0.7004 0.7062 0.7111 0.7158 0.7198
1013.000000 0.7201 0.7203 0.7206 0.7208 0.7211
1008.000000 0.7228 0.7249 0.7272 0.7301 0.7304
1003.000000 0.7306 0.7308 0.7311 0.7312 0.7315
998.000000 0.7321 0.7325 0.7331 0.7336 0.7342
993.000000 0.7347 0.7351 0.7357 0.7361 0.7367
988.000000 0.7371 0.7376 0.7382 0.7388 0.7393
983.000000 0.7396 0.7399 0.7401 0.7404 0.7407
978.000000 0.7410 0.7412 0.7415 0.7418 0.7421
973.000000 0.7425 0.7428 0.7431 0.7435 0.7440
968.000000 0.7444 0.7449 0.7454 0.7458 0.7462
963.000000 0.7467 0.7469 0.7478 0.7485 0.7494
958.000000 0.7503 0.7511 0.7521 0.7525 0.7518
953.000000 0.7511 0.7505 0.7508 0.7512 0.7517
948.000000 0.7519 0.7524 0.7526 0.7530 0.7533
943.000000 0.7536 0.7539 0.7542 0.7545 0.7548
938.000000 0.7549 0.7549 0.7548 0.7547 0.7546
933.000000 0.7542 0.7539 0.7536 0.7533 0.7530
928.000000 0.7524 0.7511 0.7501 0.7490 0.7478
923.000000 0.7456 0.7424 0.7392 0.7336 0.7278
918.000000 0.7222 0.7167 0.7111 0.7008 0.6667
913.000000 0.6187 0.5706 0.5226 0.4772 0.4779
908.000000 0.4782 0.4952 0.5123 0.5293 0.5462
903.000000 0.5634 0.5804 0.5975 0.6145 0.6315
898.000000 0.6486 0.6571 0.6560 0.6357 0.5479
893.000000 0.4602 0.3754 0.3754 0.4068 0.4435
888.000000 0.4801 0.5167 0.5534 0.5900 0.6160
883.000000 0.6260 0.6360 0.6515 0.6730 0.6904
878.000000 0.7032 0.7134 0.7191 0.7248 0.7297
873.000000 0.7331 0.7365 0.7399 0.7432 0.7460
868.000000 0.7483 0.7506 0.7528 0.7551 0.7575
863.000000 0.7589 0.7597 0.7605 0.7614 0.7621
858.000000 0.7630 0.7639 0.7647 0.7655 0.7662
853.000000 0.7668 0.7674 0.7680 0.7685 0.7691
848.000000 0.7696 0.7701 0.7707 0.7712 0.7718
843.000000 0.7722 0.7726 0.7732 0.7737 0.7741
838.000000 0.7746 0.7750 0.7755 0.7758 0.7764
833.000000 0.7768 0.7772 0.7778 0.7782 0.7786
828.000000 0.7789 0.7792 0.7795 0.7798 0.7801
823.000000 0.7804 0.7807 0.7810 0.7811 0.7815
818.000000 0.7818 0.7821 0.7822 0.7824 0.7824
813.000000 0.7824 0.7825 0.7825 0.7825 0.7825
808.000000 0.7825 0.7826 0.7828 0.7828 0.7828
803.000000 0.7830 0.7831 0.7832 0.7833 0.7836
798.000000 0.7838 0.7841 0.7844 0.7847 0.7850
793.000000 0.7853 0.7855 0.7856 0.7857 0.7858
788.000000 0.7860 0.7861 0.7862 0.7862 0.7861
783.000000 0.7858 0.7857 0.7855 0.7853 0.7853
778.000000 0.7855 0.7857 0.7858 0.7861 0.7862
773.000000 0.7869 0.7878 0.7886 0.7894 0.7901
768.000000 0.7908 0.7910 0.7911 0.7911 0.7908
763.000000 0.7904 0.7900 0.7895 0.7890 0.7885
758.000000 0.7880 0.7875 0.7874 0.7872 0.7871
753.000000 0.7871 0.7869 0.7868 0.7868 0.7867
748.000000 0.7867 0.7865 0.7865 0.7865 0.7865
743.000000 0.7864 0.7862 0.7862 0.7861 0.7861
738.000000 0.7860 0.7851 0.7836 0.7821 0.7821
733.000000 0.7825 0.7828 0.7832 0.7835 0.7839
728.000000 0.7841 0.7843 0.7846 0.7841 0.7815
723.000000 0.7790 0.7767 0.7747 0.7725 0.7714
718.000000 0.7708 0.7701 0.7696 0.7690 0.7684
713.000000 0.7676 0.7671 0.7664 0.7657 0.7617
708.000000 0.7558 0.7480 0.7393 0.7298 0.7193
703.000000 0.7069 0.6915 0.6749 0.6177 0.5605
698.000000 0.5032 0.4823 0.4810 0.4810 0.4809
693.000000 0.4818 0.4855 0.4945 0.5016 0.5090
688.000000 0.5487 0.5649 0.5810 0.5972 0.6134
683.000000 0.6298 0.6485 0.6643 0.6760 0.6851
678.000000 0.6924 0.6996 0.7068 0.7131 0.7187
673.000000 0.7242 0.7297 0.7353 0.7400 0.7436
668.000000 0.7471 0.7508 0.7545 0.7575 0.7603
663.000000 0.7631 0.7658 0.7686 0.7708 0.7725
658.000000 0.7744 0.7761 0.7780 0.7798 0.7812
653.000000 0.7825 0.7836 0.7848 0.7860 0.7871
648.000000 0.7883 0.7894 0.7901 0.7908 0.7915
643.000000 0.7922 0.7931 0.7937 0.7941 0.7945
638.000000 0.7949 0.7953 0.7957 0.7961 0.7965
633.000000 0.7968 0.7971 0.7974 0.7976 0.7980
628.000000 0.7982 0.7996 0.7980 0.7974 0.7967
623.000000 0.7961 0.7955 0.7946 0.7936 0.7925
618.000000 0.7905 0.7875 0.7844 0.7811 0.7740
613.000000 0.7672 0.7611 0.7528 0.7393 0.7255
608.000000 0.7115 0.6976 0.6839 0.6700 0.6640
603.000000 0.6633 0.6633 0.6647 0.6692 0.6819
598.000000 0.6921 0.7004 0.7075 0.7119 0.7165
593.000000 0.7210 0.7255 0.7310 0.7364 0.7411
588.000000 0.7447 0.7483 0.7503 0.7521 0.7540
583.000000 0.7558 0.7568 0.7578 0.7588 0.7595
578.000000 0.7599 0.7603 0.7607 0.7611 0.7612
573.000000 0.7614 0.7614 0.7615 0.7615 0.7615
568.000000 0.7615 0.7611 0.7607 0.7603 0.7598
563.000000 0.7593 0.7589 0.7578 0.7564 0.7549
558.000000 0.7531 0.7504 0.7476 0.7449 0.7421
553.000000 0.7390 0.7357 0.7325 0.7295 0.7265
548.000000 0.7251 0.7247 0.7243 0.7238 0.7234
543.000000 0.7228 0.7225 0.7224 0.7221 0.7218
538.000000 0.7185 0.7138 0.7091 0.7031 0.6941
533.000000 0.6856 0.6780 0.6704 0.6619 0.6535
528.000000 0.6449 0.6383 0.6321 0.6258 0.6179
523.000000 0.6081 0.5983 0.5760 0.5607 0.5485
518.000000 0.5409 0.5330 0.5222 0.5116 0.5010
513.000000 0.4904 0.4798 0.4692 0.4587 0.4481
508.000000 0.4375 0.4269 0.4162 0.4057 0.3950
503.000000 0.3908 0.3899 0.3899 0.3899 0.3907
498.000000 0.4022 0.4210 0.4400 0.4588 0.4777
493.000000 0.4966 0.5154 0.5343 0.5532 0.5720
488.000000 0.5909 0.6098 0.6286 0.6490 0.6647
483.000000 0.6757 0.6850 0.6914 0.6976 0.7040
478.000000 0.7088 0.7136 0.7182 0.7224 0.7254
473.000000 0.7275 0.7288 0.7299 0.7310 0.7321
468.000000 0.7325 0.7328 0.7333 0.7336 0.7336
463.000000 0.7337 0.7333 0.7330 0.7326 0.7322
458.000000 0.7319 0.7315 0.7310 0.7304 0.7298
453.000000 0.7292 0.7286 0.7281 0.7275 0.7268
448.000000 0.7258 0.7245 0.7231 0.7218 0.7204
443.000000 0.7190 0.7175 0.7161 0.7147 0.7132
438.000000 0.7117 0.7101 0.7087 0.7074 0.7061
433.000000 0.7049 0.7037 0.7024 0.7011 0.6999
428.000000 0.6990 0.6982 0.6975 0.6967 0.6960
423.000000 0.6953 0.6944 0.6933 0.6921 0.6911
418.000000 0.6899 0.6888 0.6872 0.6856 0.6839
413.000000 0.6814 0.6761 0.6531 0.6421 0.6328
408.000000 0.6301 0.6274 0.6247 0.6215 0.6177
403.000000 0.6137 0.6094 0.6050 0.6017 0.5989
398.000000 0.5958 0.5927 0.5908 0.5898 0.5888
393.000000 0.5870 0.5841 0.5798 0.5754 0.5652
388.000000 0.5571 0.5502 0.5433 0.5355 0.5274
383.000000 0.5185 0.4935 0.4802 0.4723 0.4659
378.000000 0.4603 0.4548 0.4484 0.4410 0.4376
373.000000 0.4357 0.4348 0.4340 0.4293 0.4151
368.000000 0.4028 0.3912 0.3762 0.3592 0.3391
363.000000 0.3057 0.2883 0.2791 0.2709 0.2627
358.000000 0.2523 0.2496 0.2480 0.2464 0.2447
353.000000 0.2431 0.2417 0.2414 0.2411 0.2409
348.000000 0.2406 0.2404 0.2417 0.2399 0.2396
343.000000 0.2394 0.2391 0.2389 0.2385 0.2384
338.000000 0.2382 0.2379 0.2377 0.2375 0.2373
333.000000 0.2370 0.2365 0.2353 0.2342 0.2330
328.000000 0.2315 0.2299 0.2284 0.2268 0.2247
323.000000 0.2209 0.2171 0.2124 0.2061 0.1998
318.000000 0.1940 0.1882 0.1837 0.1804 0.1770
313.000000 0.1734 0.1701 0.1667 0.1640 0.1619
308.000000 0.1596 0.1576 0.1554 0.1533 0.1514
303.000000 0.1498 0.1482 0.1466 0.1450
##END=
