##TITLE=Alpha-CHLOROACRYLIC ACID
##JCAMP-DX=4.24
##DATA TYPE=INFRARED SPECTRUM
##CLASS=COBLENTZ
##ORIGIN=DOW CHEMICAL COMPANY
##OWNER=COBLENTZ SOCIETY
Collection (C) 2018 copyright by the U.S. Secretary of Commerce
on behalf of the United States of America. All rights reserved.
##DATE=Not specified, most likely prior to 1970
##NAMES=2-chloroacrylic acid
##CAS REGISTRY NO=598-79-8
##MOLFORM=C3 H3 Cl O2
##SOURCE REFERENCE=COBLENTZ NO. 1993
##$NIST SOURCE=COBLENTZ
##$NIST IMAGE=cob1993
##SPECTROMETER/DATA SYSTEM=Not specified, most likely a prism, grating, or hybrid spectrometer.
##STATE=SOLUTION (10% CCl4 FOR 5000-1330, 10% CS2 FOR 1330-625 CM^-^1)
##PATH LENGTH=0.0119 CM, 0.0115 CM
$$SPECTRAL CONTAMINATION DUE TO CCl4 AROUND 1550 CM^-^1
##SAMPLING PROCEDURE=TRANSMISSION
##RESOLUTION=4
##DATA PROCESSING=DIGITIZED BY NIST FROM HARD COPY
##XUNITS=MICROMETERS
##YUNITS=TRANSMITTANCE
##XFACTOR=1.000000
##YFACTOR=1
##DELTAX=000.006853
##FIRSTX=2.027
##LASTX=15.918
##FIRSTY=0.888
##MAXX=15.918
##MINX=2.027
##MAXY=0.89
##MINY=0.013
##NPOINTS=2028
##XYDATA=(X++(Y..Y))
2.027000 0.8880 0.8880 0.8900 0.8900 0.8900
2.061280 0.8900 0.8900 0.8900 0.8900 0.8880
2.096000 0.8880 0.8880 0.8880 0.8880 0.8880
2.130280 0.8860 0.8860 0.8860 0.8860 0.8850
2.164000 0.8800 0.8800 0.8780 0.8750 0.8750
2.198280 0.8730 0.8690 0.8690 0.8690 0.8690
2.233000 0.8690 0.8690 0.8690 0.8690 0.8690
2.267280 0.8690 0.8680 0.8680 0.8680 0.8680
2.302000 0.8680 0.8660 0.8610 0.8590 0.8590
2.336280 0.8590 0.8610 0.8630 0.8630 0.8630
2.370000 0.8630 0.8630 0.8630 0.8630 0.8630
2.404280 0.8630 0.8640 0.8660 0.8660 0.8660
2.439000 0.8680 0.8690 0.8710 0.8710 0.8730
2.473280 0.8730 0.8750 0.8750 0.8780 0.8800
2.507000 0.8830 0.8850 0.8850 0.8850 0.8850
2.541280 0.8850 0.8850 0.8850 0.8830 0.8830
2.576000 0.8810 0.8810 0.8810 0.8800 0.8800
2.610280 0.8800 0.8800 0.8800 0.8800 0.8800
2.644000 0.8800 0.8800 0.8800 0.8800 0.8800
2.678280 0.8800 0.8780 0.8760 0.8750 0.8710
2.713000 0.8690 0.8630 0.8610 0.8590 0.8590
2.747280 0.8590 0.8590 0.8540 0.8510 0.8470
2.781000 0.8450 0.8370 0.8270 0.8160 0.8060
2.815280 0.7970 0.7960 0.7890 0.7820 0.7790
2.850000 0.7750 0.7730 0.7720 0.7700 0.7680
2.884280 0.7610 0.7560 0.7460 0.7360 0.7220
2.918000 0.7120 0.6960 0.6860 0.6620 0.6470
2.952280 0.6350 0.6180 0.6010 0.5900 0.5680
2.987000 0.5540 0.5410 0.5250 0.5100 0.4790
3.021280 0.4640 0.4450 0.4280 0.4090 0.3880
3.055000 0.3660 0.3470 0.3270 0.3110 0.2990
3.089280 0.2820 0.2700 0.2560 0.2460 0.2290
3.124000 0.2140 0.2050 0.2000 0.1900 0.1790
3.158280 0.1670 0.1570 0.1450 0.1330 0.1260
3.192000 0.1230 0.1160 0.1140 0.1010 0.1010
3.226280 0.0950 0.0940 0.0920 0.0920 0.0900
3.261000 0.0890 0.0890 0.0870 0.0850 0.0850
3.295280 0.0830 0.0820 0.0780 0.0770 0.0770
3.329000 0.0800 0.0830 0.0830 0.0850 0.0850
3.363280 0.0890 0.0900 0.0950 0.1020 0.1420
3.398000 0.1420 0.1300 0.1090 0.0950 0.0870
3.432280 0.0850 0.0830 0.0820 0.0800 0.0800
3.466000 0.0800 0.0800 0.0820 0.0900 0.1010
3.500280 0.1070 0.1160 0.1230 0.1310 0.1420
3.535000 0.1520 0.1600 0.1690 0.1720 0.1790
3.569280 0.1860 0.1910 0.2000 0.2050 0.2170
3.604000 0.2240 0.2320 0.2390 0.2460 0.2510
3.638280 0.2530 0.2630 0.2680 0.2800 0.2820
3.672000 0.2840 0.2840 0.2820 0.2730 0.2670
3.706280 0.2530 0.2390 0.2290 0.2220 0.2220
3.741000 0.2220 0.2220 0.2220 0.2260 0.2240
3.775280 0.2200 0.2140 0.2140 0.2200 0.2270
3.809000 0.2480 0.2730 0.2920 0.3110 0.3230
3.843280 0.3420 0.3490 0.3610 0.3630 0.3630
3.878000 0.3610 0.3610 0.3440 0.3300 0.3040
3.912280 0.2850 0.2730 0.2630 0.2600 0.2600
3.946000 0.2630 0.2770 0.2970 0.3130 0.3320
3.980280 0.3470 0.3710 0.3900 0.4090 0.4430
4.015000 0.4650 0.4860 0.4940 0.5010 0.5080
4.049280 0.5200 0.5340 0.5460 0.5590 0.5710
4.083000 0.5800 0.5850 0.5900 0.5920 0.5950
4.117280 0.5950 0.5950 0.5940 0.5920 0.5920
4.152000 0.5950 0.6020 0.6130 0.6210 0.6280
4.186280 0.6310 0.6350 0.6380 0.6420 0.6480
4.220000 0.6550 0.6590 0.6600 0.6620 0.6640
4.254280 0.6690 0.6760 0.6830 0.6840 0.6880
4.289000 0.6950 0.7020 0.7030 0.7070 0.7100
4.323280 0.7120 0.7150 0.7150 0.7170 0.7190
4.357000 0.7200 0.7200 0.7220 0.7220 0.7240
4.391280 0.7260 0.7260 0.7260 0.7260 0.7240
4.426000 0.7240 0.7240 0.7240 0.7310 0.7380
4.460280 0.7440 0.7500 0.7510 0.7510 0.7510
4.494000 0.7530 0.7530 0.7550 0.7560 0.7600
4.528280 0.7600 0.7600 0.7600 0.7600 0.7600
4.563000 0.7600 0.7600 0.7600 0.7600 0.7560
4.597280 0.7510 0.7430 0.7320 0.7290 0.7220
4.631000 0.7200 0.7200 0.7190 0.7200 0.7200
4.665280 0.7240 0.7270 0.7340 0.7410 0.7440
4.700000 0.7560 0.7610 0.7650 0.7720 0.7730
4.734280 0.7800 0.7800 0.7820 0.7840 0.7850
4.768000 0.7850 0.7870 0.7870 0.7870 0.7890
4.802280 0.7890 0.7890 0.7890 0.7910 0.7940
4.837000 0.7970 0.8010 0.8010 0.8030 0.8030
4.871280 0.8010 0.8010 0.7990 0.7970 0.7940
4.906000 0.7920 0.7910 0.7850 0.7800 0.7720
4.940280 0.7700 0.7670 0.7630 0.7610 0.7560
4.974000 0.7510 0.7440 0.7430 0.7430 0.7430
5.008280 0.7430 0.7430 0.7430 0.7500 0.7550
5.043000 0.7630 0.7730 0.7770 0.7800 0.7800
5.077280 0.7800 0.7800 0.7800 0.7770 0.7750
5.111000 0.7730 0.7720 0.7720 0.7700 0.7700
5.145280 0.7680 0.7670 0.7650 0.7650 0.7650
5.180000 0.7630 0.7630 0.7630 0.7630 0.7630
5.214280 0.7630 0.7610 0.7610 0.7610 0.7610
5.248000 0.7580 0.7550 0.7530 0.7500 0.7430
5.282280 0.7410 0.7320 0.7240 0.7140 0.7050
5.317000 0.6960 0.6840 0.6720 0.6640 0.6640
5.351280 0.6640 0.6640 0.6640 0.6740 0.6930
5.385000 0.7070 0.7140 0.7240 0.7270 0.7270
5.419280 0.7270 0.7270 0.7260 0.7240 0.7220
5.454000 0.7220 0.7220 0.7220 0.7150 0.7140
5.488280 0.7120 0.7050 0.7030 0.7030 0.7000
5.522000 0.6960 0.6950 0.6950 0.6910 0.6860
5.556280 0.6830 0.6760 0.6720 0.6640 0.6590
5.591000 0.6480 0.6380 0.6260 0.6130 0.5970
5.625280 0.5800 0.5610 0.5410 0.5170 0.4620
5.659000 0.4290 0.4000 0.3810 0.3730 0.3630
5.693280 0.3610 0.3540 0.3520 0.3510 0.3440
5.728000 0.3400 0.3280 0.3090 0.2920 0.2680
5.762280 0.2380 0.2120 0.1720 0.1420 0.1180
5.796000 0.0970 0.0710 0.0490 0.0300 0.0250
5.830280 0.0230 0.0230 0.0230 0.0230 0.0230
5.865000 0.0230 0.0230 0.0230 0.0230 0.0270
5.899280 0.0460 0.0680 0.0990 0.1310 0.1550
5.933000 0.2020 0.2360 0.2670 0.2990 0.3250
5.967280 0.3570 0.3830 0.4040 0.4190 0.4340
6.002000 0.4450 0.4600 0.4760 0.4820 0.4860
6.036280 0.4890 0.4910 0.4960 0.5000 0.5010
6.070000 0.5060 0.5130 0.5220 0.5230 0.5270
6.104280 0.5270 0.5300 0.5300 0.5130 0.4580
6.139000 0.4290 0.3970 0.3330 0.2870 0.2340
6.173280 0.1910 0.1480 0.1190 0.1020 0.0940
6.208000 0.0920 0.0940 0.1140 0.1350 0.1500
6.242280 0.1540 0.1600 0.1710 0.1900 0.2220
6.276000 0.2670 0.3110 0.3400 0.3660 0.3860
6.310280 0.4050 0.4170 0.4360 0.4450 0.4500
6.345000 0.4500 0.4500 0.4500 0.4500 0.4500
6.379280 0.4430 0.4410 0.4360 0.4330 0.4290
6.413000 0.4260 0.4220 0.4160 0.4070 0.3950
6.447280 0.3880 0.3850 0.3860 0.3930 0.4020
6.482000 0.4120 0.4280 0.4550 0.4700 0.4880
6.516280 0.4940 0.5010 0.5080 0.5180 0.5300
6.550000 0.5370 0.5420 0.5530 0.5580 0.5680
6.584280 0.5770 0.5830 0.5890 0.6010 0.6130
6.619000 0.6260 0.6350 0.6450 0.6520 0.6620
6.653280 0.6720 0.6780 0.6860 0.6910 0.6910
6.687000 0.6900 0.6830 0.6740 0.6570 0.6470
6.721280 0.6230 0.6070 0.5990 0.5920 0.5900
6.756000 0.5900 0.5920 0.5940 0.5990 0.6020
6.790280 0.6060 0.6110 0.6110 0.6130 0.6110
6.824000 0.5970 0.5940 0.5800 0.5630 0.5470
6.858280 0.5320 0.5180 0.5030 0.4820 0.4720
6.893000 0.4570 0.4480 0.4280 0.4040 0.3800
6.927280 0.3370 0.3080 0.2670 0.2270 0.1720
6.961000 0.1380 0.1020 0.0630 0.0410 0.0320
6.995280 0.0270 0.0230 0.0230 0.0230 0.0300
7.030000 0.0390 0.0540 0.0830 0.1280 0.1830
7.064280 0.2190 0.2580 0.2790 0.3060 0.3370
7.098000 0.3680 0.3970 0.4280 0.4570 0.4770
7.132280 0.4910 0.5000 0.5080 0.5230 0.5370
7.167000 0.5510 0.5630 0.5650 0.5650 0.5650
7.201280 0.5610 0.5560 0.5440 0.5320 0.5290
7.235000 0.5230 0.5230 0.5230 0.5420 0.5650
7.269280 0.5830 0.6350 0.6540 0.6620 0.6670
7.304000 0.6710 0.6760 0.6810 0.6830 0.6880
7.338280 0.6910 0.6910 0.6930 0.6930 0.6930
7.372000 0.6930 0.6910 0.6860 0.6840 0.6810
7.406280 0.6760 0.6660 0.6540 0.6420 0.6330
7.441000 0.6300 0.6230 0.6070 0.5940 0.5900
7.475280 0.5900 0.5900 0.5920 0.5940 0.6010
7.510000 0.6070 0.6190 0.6250 0.6250 0.6260
7.544280 0.6280 0.6280 0.6310 0.6310 0.6310
7.578000 0.6250 0.6190 0.6070 0.5970 0.5830
7.612280 0.5590 0.5410 0.5230 0.5100 0.4770
7.647000 0.4580 0.4340 0.4040 0.3780 0.3450
7.681280 0.3130 0.2940 0.2580 0.2360 0.2030
7.715000 0.1740 0.1540 0.1260 0.1130 0.0940
7.749280 0.0820 0.0650 0.0560 0.0530 0.0510
7.784000 0.0490 0.0490 0.0490 0.0470 0.0460
7.818280 0.0440 0.0420 0.0410 0.0390 0.0370
7.852000 0.0350 0.0350 0.0350 0.0370 0.0370
7.886280 0.0410 0.0630 0.0730 0.0820 0.0990
7.921000 0.1140 0.1350 0.1570 0.1840 0.2190
7.955280 0.2440 0.2680 0.2840 0.3090 0.3280
7.989000 0.3490 0.3590 0.3780 0.3850 0.4280
8.023280 0.4450 0.4570 0.4670 0.4740 0.4820
8.058000 0.4960 0.5010 0.5060 0.5170 0.5220
8.092280 0.5370 0.5470 0.5530 0.5650 0.5770
8.126000 0.5870 0.5920 0.6010 0.6020 0.6040
8.160280 0.6110 0.6130 0.6160 0.6190 0.6190
8.195000 0.6190 0.6190 0.6210 0.6230 0.6250
8.229280 0.6250 0.6280 0.6280 0.6310 0.6330
8.263000 0.6350 0.6380 0.6420 0.6420 0.6430
8.297280 0.6450 0.6450 0.6450 0.6470 0.6470
8.332000 0.6470 0.6470 0.6470 0.6470 0.6470
8.366280 0.6470 0.6470 0.6470 0.6470 0.6470
8.400000 0.6470 0.6470 0.6470 0.6470 0.6470
8.434280 0.6470 0.6470 0.6470 0.6470 0.6450
8.469000 0.6450 0.6450 0.6420 0.6420 0.6400
8.503280 0.6310 0.6250 0.6210 0.6140 0.6110
8.537000 0.6020 0.5990 0.5920 0.5850 0.5820
8.571280 0.5770 0.5680 0.5610 0.5560 0.5460
8.606000 0.5410 0.5300 0.5180 0.5080 0.4940
8.640280 0.4930 0.4790 0.4690 0.4550 0.4430
8.674000 0.4310 0.4070 0.3970 0.3780 0.3570
8.708280 0.3330 0.3130 0.2870 0.2550 0.2320
8.743000 0.2120 0.1910 0.1720 0.1620 0.1500
8.777280 0.1470 0.1470 0.1470 0.1500 0.1550
8.812000 0.1600 0.1660 0.1710 0.1740 0.1720
8.846280 0.1620 0.1540 0.1310 0.1130 0.0940
8.880000 0.0730 0.0530 0.0420 0.0320 0.0270
8.914280 0.0230 0.0230 0.0230 0.0320 0.0530
8.949000 0.0820 0.1130 0.1710 0.2070 0.2340
8.983280 0.2940 0.3150 0.3540 0.4000 0.4400
9.017000 0.4770 0.4930 0.5060 0.5320 0.5470
9.051280 0.5680 0.5920 0.6040 0.6210 0.6310
9.086000 0.6400 0.6480 0.6540 0.6620 0.6660
9.120280 0.6720 0.6780 0.6830 0.6860 0.6910
9.154000 0.6930 0.6980 0.7020 0.7030 0.7030
9.188280 0.7030 0.7030 0.7030 0.7030 0.7020
9.223000 0.7020 0.7000 0.6980 0.6960 0.6930
9.257280 0.6910 0.6910 0.6910 0.6930 0.7050
9.291000 0.7170 0.7290 0.7410 0.7530 0.7610
9.325280 0.7720 0.7790 0.7820 0.7840 0.7890
9.360000 0.7910 0.7910 0.7910 0.7920 0.7940
9.394280 0.7940 0.7960 0.7960 0.7960 0.7970
9.428000 0.7970 0.7970 0.7970 0.7990 0.7990
9.462280 0.7990 0.7990 0.7990 0.7990 0.7990
9.497000 0.7990 0.7990 0.7990 0.7990 0.7990
9.531280 0.7990 0.7990 0.7990 0.7990 0.7990
9.565000 0.7990 0.7990 0.7990 0.7990 0.7990
9.599280 0.7990 0.7990 0.7990 0.7970 0.7970
9.634000 0.7940 0.7940 0.7940 0.7940 0.7920
9.668280 0.7920 0.7910 0.7890 0.7890 0.7870
9.702000 0.7850 0.7840 0.7820 0.7820 0.7800
9.736280 0.7800 0.7790 0.7770 0.7770 0.7750
9.771000 0.7730 0.7730 0.7720 0.7720 0.7700
9.805280 0.7700 0.7700 0.7700 0.7700 0.7700
9.839000 0.7700 0.7700 0.7700 0.7700 0.7700
9.873280 0.7700 0.7700 0.7700 0.7700 0.7700
9.908000 0.7700 0.7680 0.7680 0.7670 0.7670
9.942280 0.7650 0.7650 0.7630 0.7630 0.7610
9.977000 0.7610 0.7610 0.7610 0.7610 0.7600
10.011280 0.7560 0.7550 0.7530 0.7530 0.7510
10.045000 0.7510 0.7500 0.7500 0.7500 0.7500
10.079280 0.7480 0.7480 0.7460 0.7440 0.7410
10.114000 0.7410 0.7390 0.7390 0.7390 0.7380
10.148280 0.7380 0.7360 0.7340 0.7320 0.7320
10.182000 0.7310 0.7310 0.7270 0.7260 0.7220
10.216280 0.7170 0.7120 0.7100 0.7080 0.7050
10.251000 0.7020 0.7020 0.7000 0.6980 0.6930
10.285280 0.6900 0.6840 0.6810 0.6790 0.6740
10.319000 0.6710 0.6620 0.6600 0.6540 0.6520
10.353280 0.6480 0.6430 0.6380 0.6300 0.6210
10.388000 0.6160 0.6110 0.6040 0.5990 0.5900
10.422280 0.5820 0.5710 0.5630 0.5580 0.5530
10.456000 0.5470 0.5340 0.5290 0.5180 0.5080
10.490280 0.5030 0.4790 0.4700 0.4530 0.4400
10.525000 0.4280 0.4190 0.4040 0.3980 0.3830
10.559280 0.3690 0.3510 0.3370 0.3150 0.2990
10.593000 0.2940 0.2410 0.2380 0.2170 0.2070
10.627280 0.1900 0.1660 0.1590 0.1420 0.1230
10.662000 0.1020 0.0830 0.0730 0.0590 0.0530
10.696280 0.0420 0.0340 0.0290 0.0220 0.0170
10.730000 0.0150 0.0130 0.0130 0.0130 0.0220
10.764280 0.0320 0.0420 0.0580 0.0710 0.0890
10.799000 0.0990 0.1110 0.1260 0.1380 0.1480
10.833280 0.1590 0.1640 0.1760 0.1810 0.1840
10.867000 0.1910 0.2000 0.2030 0.2050 0.2080
10.901280 0.2120 0.2140 0.2150 0.2150 0.2170
10.936000 0.2200 0.2200 0.2220 0.2220 0.2240
10.970280 0.2260 0.2270 0.2270 0.2290 0.2290
11.004000 0.2290 0.2290 0.2310 0.2310 0.2310
11.038280 0.2310 0.2310 0.2310 0.2310 0.2310
11.073000 0.2310 0.2310 0.2320 0.2320 0.2320
11.107280 0.2320 0.2340 0.2360 0.2380 0.2390
11.141000 0.2390 0.2410 0.2410 0.2410 0.2430
11.175280 0.2430 0.2430 0.2430 0.2440 0.2460
11.210000 0.2480 0.2500 0.2500 0.2500 0.2480
11.244280 0.2440 0.2440 0.2430 0.2360 0.2290
11.279000 0.2240 0.2170 0.2140 0.2080 0.2050
11.313280 0.2030 0.1950 0.1840 0.1790 0.1720
11.347000 0.1710 0.1710 0.1710 0.1710 0.1710
11.381280 0.1710 0.1720 0.1740 0.1860 0.2030
11.416000 0.2150 0.2270 0.2360 0.2440 0.2500
11.450280 0.2560 0.2630 0.2720 0.2730 0.2820
11.484000 0.2850 0.2910 0.2960 0.3030 0.3080
11.518280 0.3130 0.3160 0.3200 0.3230 0.3230
11.553000 0.3300 0.3330 0.3350 0.3390 0.3420
11.587280 0.3440 0.3450 0.3470 0.3490 0.3520
11.621000 0.3540 0.3540 0.3560 0.3570 0.3630
11.655280 0.3640 0.3660 0.3730 0.3750 0.3760
11.690000 0.3830 0.3860 0.3900 0.3920 0.3950
11.724280 0.3980 0.4020 0.4040 0.4050 0.4090
11.758000 0.4140 0.4220 0.4240 0.4290 0.4340
11.792280 0.4380 0.4450 0.4520 0.4580 0.4650
11.827000 0.4720 0.4740 0.4790 0.4790 0.4840
11.861280 0.4860 0.4930 0.4960 0.5000 0.5030
11.895000 0.5060 0.5080 0.5100 0.5130 0.5170
11.929280 0.5180 0.5220 0.5230 0.5290 0.5340
11.964000 0.5370 0.5410 0.5440 0.5460 0.5470
11.998280 0.5490 0.5490 0.5490 0.5490 0.5530
12.032000 0.5530 0.5540 0.5540 0.5560 0.5580
12.066280 0.5590 0.5590 0.5610 0.5610 0.5630
12.101000 0.5630 0.5650 0.5660 0.5660 0.5680
12.135280 0.5680 0.5680 0.5700 0.5700 0.5710
12.169000 0.5710 0.5730 0.5730 0.5730 0.5730
12.203280 0.5750 0.5750 0.5750 0.5750 0.5750
12.238000 0.5730 0.5730 0.5730 0.5710 0.5700
12.272280 0.5700 0.5680 0.5660 0.5650 0.5630
12.306000 0.5630 0.5610 0.5610 0.5610 0.5610
12.340280 0.5610 0.5610 0.5590 0.5580 0.5580
12.375000 0.5540 0.5540 0.5540 0.5530 0.5510
12.409280 0.5490 0.5470 0.5460 0.5420 0.5410
12.443000 0.5370 0.5340 0.5320 0.5270 0.5220
12.477280 0.5180 0.5130 0.5100 0.5050 0.5030
12.512000 0.4940 0.4930 0.4910 0.4880 0.4880
12.546280 0.4860 0.4880 0.4890 0.4980 0.5050
12.581000 0.5110 0.5180 0.5270 0.5490 0.5650
12.615280 0.5900 0.6090 0.6250 0.6330 0.6420
12.649000 0.6480 0.6640 0.6720 0.6760 0.6830
12.683280 0.6910 0.6980 0.7020 0.7030 0.7070
12.718000 0.7100 0.7120 0.7120 0.7150 0.7150
12.752280 0.7150 0.7150 0.7150 0.7150 0.7150
12.786000 0.7150 0.7150 0.7150 0.7150 0.7150
12.820280 0.7150 0.7140 0.7120 0.7120 0.7120
12.855000 0.7120 0.7120 0.7120 0.7120 0.7120
12.889280 0.7120 0.7120 0.7120 0.7120 0.7100
12.923000 0.7100 0.7100 0.7100 0.7080 0.7080
12.957280 0.7070 0.7070 0.7050 0.7050 0.7030
12.992000 0.7020 0.7020 0.7000 0.6980 0.6960
13.026280 0.6950 0.6930 0.6910 0.6910 0.6900
13.060000 0.6840 0.6830 0.6830 0.6830 0.6810
13.094280 0.6810 0.6780 0.6740 0.6720 0.6670
13.129000 0.6640 0.6600 0.6570 0.6550 0.6540
13.163280 0.6480 0.6430 0.6420 0.6350 0.6330
13.197000 0.6310 0.6280 0.6250 0.6180 0.6130
13.231280 0.6110 0.6070 0.6040 0.6010 0.5990
13.266000 0.5970 0.5920 0.5890 0.5850 0.5830
13.300280 0.5830 0.5820 0.5780 0.5730 0.5710
13.334000 0.5650 0.5630 0.5580 0.5540 0.5530
13.368280 0.5490 0.5420 0.5350 0.5320 0.5290
13.403000 0.5230 0.5170 0.5080 0.4890 0.4790
13.437280 0.4720 0.4620 0.4530 0.4480 0.4340
13.471000 0.4240 0.4140 0.4040 0.3980 0.3800
13.505280 0.3680 0.3520 0.3390 0.3230 0.3040
13.540000 0.2940 0.2790 0.2630 0.2480 0.2360
13.574280 0.2240 0.1950 0.1860 0.1760 0.1660
13.608000 0.1550 0.1450 0.1430 0.1420 0.1330
13.642280 0.1250 0.1210 0.1130 0.1060 0.1040
13.677000 0.1010 0.0990 0.0950 0.0940 0.0940
13.711280 0.0940 0.0950 0.1010 0.1040 0.1130
13.745000 0.1210 0.1260 0.1330 0.1420 0.1450
13.779280 0.1520 0.1550 0.1620 0.1620 0.1690
13.814000 0.1740 0.1900 0.1960 0.1980 0.2000
13.848280 0.2030 0.2120 0.2170 0.2220 0.2290
13.883000 0.2340 0.2430 0.2460 0.2530 0.2650
13.917280 0.2750 0.2840 0.2990 0.3080 0.3230
13.951000 0.3320 0.3440 0.3540 0.3630 0.3750
13.985280 0.3780 0.3880 0.4000 0.4190 0.4280
14.020000 0.4360 0.4410 0.4460 0.4500 0.4530
14.054280 0.4600 0.4640 0.4700 0.4740 0.4810
14.088000 0.4840 0.4910 0.4930 0.5000 0.5010
14.122280 0.5010 0.5030 0.5060 0.5100 0.5130
14.157000 0.5200 0.5230 0.5270 0.5300 0.5320
14.191280 0.5340 0.5350 0.5370 0.5390 0.5410
14.225000 0.5420 0.5440 0.5460 0.5490 0.5510
14.259280 0.5530 0.5540 0.5560 0.5580 0.5580
14.294000 0.5610 0.5630 0.5650 0.5650 0.5650
14.328280 0.5650 0.5660 0.5660 0.5660 0.5680
14.362000 0.5680 0.5700 0.5700 0.5710 0.5710
14.396280 0.5710 0.5710 0.5730 0.5710 0.5710
14.431000 0.5710 0.5710 0.5710 0.5710 0.5710
14.465280 0.5710 0.5710 0.5710 0.5710 0.5710
14.499000 0.5710 0.5700 0.5700 0.5700 0.5700
14.533280 0.5700 0.5680 0.5680 0.5660 0.5660
14.568000 0.5650 0.5630 0.5630 0.5610 0.5590
14.602280 0.5590 0.5580 0.5560 0.5540 0.5530
14.636000 0.5510 0.5490 0.5460 0.5440 0.5420
14.670280 0.5410 0.5410 0.5370 0.5340 0.5300
14.705000 0.5270 0.5230 0.5220 0.5200 0.5130
14.739280 0.5100 0.5030 0.5010 0.4910 0.4880
14.773000 0.4810 0.4810 0.4770 0.4720 0.4670
14.807280 0.4580 0.4500 0.4460 0.4380 0.4360
14.842000 0.4310 0.4290 0.4240 0.4210 0.4210
14.876280 0.4160 0.4120 0.4100 0.4040 0.4020
14.910000 0.4020 0.4020 0.4000 0.4000 0.4000
14.944280 0.4000 0.4000 0.4020 0.4020 0.4100
14.979000 0.4140 0.4210 0.4290 0.4360 0.4410
15.013280 0.4460 0.4520 0.4520 0.4550 0.4570
15.047000 0.4600 0.4620 0.4640 0.4640 0.4650
15.081280 0.4670 0.4670 0.4700 0.4700 0.4720
15.116000 0.4720 0.4740 0.4740 0.4740 0.4740
15.150280 0.4740 0.4740 0.4740 0.4740 0.4740
15.185000 0.4740 0.4740 0.4740 0.4720 0.4720
15.219280 0.4720 0.4720 0.4720 0.4720 0.4720
15.253000 0.4720 0.4700 0.4700 0.4700 0.4700
15.287280 0.4690 0.4690 0.4690 0.4690 0.4690
15.322000 0.4690 0.4690 0.4670 0.4670 0.4640
15.356280 0.4620 0.4600 0.4600 0.4580 0.4580
15.390000 0.4580 0.4570 0.4570 0.4570 0.4570
15.424280 0.4550 0.4520 0.4520 0.4500 0.4500
15.459000 0.4480 0.4480 0.4480 0.4460 0.4460
15.493280 0.4460 0.4460 0.4460 0.4460 0.4460
15.527000 0.4460 0.4450 0.4430 0.4410 0.4410
15.561280 0.4410 0.4380 0.4380 0.4360 0.4360
15.596000 0.4340 0.4340 0.4330 0.4310 0.4290
15.630280 0.4280 0.4260 0.4240 0.4220 0.4210
15.664000 0.4210 0.4170 0.4120 0.4100 0.4100
15.698280 0.4090 0.4090 0.4090 0.4090 0.4070
15.733000 0.4070 0.4070 0.4070 0.4050 0.4050
15.767280 0.4050 0.4050 0.4040 0.4020 0.4020
15.801000 0.4000 0.4000 0.3980 0.3980 0.3970
15.835280 0.3970 0.3950 0.3950 0.3950 0.3930
15.870000 0.3930 0.3920 0.3920 0.3900 0.3900
15.904280 0.3900 0.3900 0.3880
##END=
