##TITLE=1-CHLORO-2-METHYL BUTANE
##JCAMP-DX=4.24
##DATA TYPE=INFRARED SPECTRUM
##CLASS=COBLENTZ
##ORIGIN=TENNESSEE EASTMAN COMPANY, RESEARCH LABORATORIES
##OWNER=COBLENTZ SOCIETY
Collection (C) 2018 copyright by the U.S. Secretary of Commerce
on behalf of the United States of America. All rights reserved.
##DATE=1960
##NAMES=1-chloro-2-methylbutane
##CAS REGISTRY NO=616-13-7
##MOLFORM=C5 H11 Cl
##SOURCE REFERENCE=COBLENTZ NO. 955
##$NIST SOURCE=COBLENTZ
##$NIST IMAGE=cob955
##SPECTROMETER/DATA SYSTEM=Not specified, most likely a prism, grating, or hybrid spectrometer.
##PATH LENGTH=0.0025 CM
##SAMPLING PROCEDURE=TRANSMISSION
##RESOLUTION=4
##DATA PROCESSING=DIGITIZED BY NIST FROM HARD COPY
##XUNITS=MICROMETERS
##YUNITS=TRANSMITTANCE
##XFACTOR=1.000000
##YFACTOR=1
##DELTAX=000.006645
##FIRSTX=2.01
##LASTX=15.9896
##FIRSTY=0.933
##MAXX=15.9896
##MINX=2.01
##MAXY=0.968
##MINY=0.023
##NPOINTS=2105
##XYDATA=(X++(Y..Y))
2.010000 0.9330 0.9330 0.9350 0.9350 0.9350
2.043238 0.9360 0.9350 0.9350 0.9350 0.9350
2.076000 0.9350 0.9350 0.9360 0.9360 0.9360
2.109238 0.9360 0.9380 0.9380 0.9380 0.9380
2.143000 0.9410 0.9430 0.9500 0.9460 0.9450
2.176238 0.9450 0.9430 0.9410 0.9400 0.9350
2.209000 0.9310 0.9260 0.9180 0.9080 0.8970
2.242238 0.8770 0.8700 0.8700 0.8700 0.8680
2.276000 0.8670 0.8650 0.8630 0.8630 0.8630
2.309238 0.8650 0.8670 0.8670 0.8680 0.8700
2.342000 0.8720 0.8730 0.8770 0.8800 0.8820
2.375238 0.8820 0.8820 0.8830 0.8830 0.8870
2.409000 0.8870 0.8880 0.8880 0.8880 0.8880
2.442238 0.8880 0.8880 0.8900 0.8900 0.8920
2.475000 0.8980 0.9010 0.9060 0.9110 0.9160
2.508238 0.9180 0.9210 0.9210 0.9210 0.9210
2.542000 0.9210 0.9230 0.9230 0.9230 0.9230
2.575238 0.9230 0.9230 0.9230 0.9230 0.9230
2.608000 0.9230 0.9230 0.9230 0.9230 0.9230
2.641238 0.9250 0.9280 0.9300 0.9300 0.9300
2.674000 0.9300 0.9300 0.9300 0.9300 0.9300
2.707238 0.9300 0.9300 0.9310 0.9330 0.9350
2.741000 0.9350 0.9360 0.9380 0.9400 0.9400
2.774238 0.9400 0.9380 0.9400 0.9410 0.9410
2.807000 0.9430 0.9450 0.9450 0.9450 0.9450
2.840238 0.9450 0.9450 0.9450 0.9450 0.9450
2.874000 0.9450 0.9450 0.9450 0.9450 0.9450
2.907238 0.9430 0.9430 0.9430 0.9430 0.9430
2.940000 0.9430 0.9430 0.9430 0.9410 0.9400
2.973238 0.9400 0.9380 0.9360 0.9380 0.9360
3.007000 0.9380 0.9380 0.9380 0.9380 0.9380
3.040238 0.9380 0.9380 0.9380 0.9380 0.9380
3.073000 0.9360 0.9350 0.9350 0.9310 0.9280
3.106238 0.9230 0.9200 0.9130 0.9060 0.9000
3.140000 0.8930 0.8880 0.8870 0.8850 0.8830
3.173238 0.8830 0.8830 0.8830 0.8830 0.8830
3.206000 0.8830 0.8820 0.8820 0.8780 0.8770
3.239238 0.8720 0.8630 0.8600 0.8550 0.8470
3.272000 0.8380 0.8180 0.7920 0.7740 0.7470
3.305238 0.7140 0.6920 0.6340 0.5490 0.4400
3.339000 0.3120 0.1690 0.0380 0.0280 0.0230
3.372238 0.0230 0.0240 0.0280 0.0340 0.0380
3.405000 0.0510 0.0630 0.0760 0.0880 0.0990
3.438238 0.1170 0.1340 0.1340 0.1270 0.1110
3.472000 0.1090 0.1110 0.3100 0.4360 0.5090
3.505238 0.6110 0.6470 0.6690 0.6860 0.7150
3.538000 0.7420 0.7700 0.7820 0.8020 0.8200
3.571238 0.8320 0.8450 0.8570 0.8620 0.8670
3.605000 0.8680 0.8680 0.8680 0.8670 0.8620
3.638238 0.8570 0.8520 0.8500 0.8480 0.8520
3.671000 0.8580 0.8680 0.8750 0.8780 0.8800
3.704238 0.8820 0.8820 0.8830 0.8870 0.8880
3.738000 0.8930 0.8980 0.9000 0.9050 0.9100
3.771238 0.9110 0.9110 0.9110 0.9110 0.9130
3.804000 0.9130 0.9130 0.9130 0.9130 0.9130
3.837238 0.9150 0.9160 0.9180 0.9200 0.9210
3.870000 0.9210 0.9230 0.9260 0.9300 0.9300
3.903238 0.9310 0.9310 0.9380 0.9400 0.9430
3.937000 0.9450 0.9450 0.9480 0.9480 0.9480
3.970238 0.9480 0.9500 0.9500 0.9500 0.9500
4.003000 0.9510 0.9510 0.9510 0.9530 0.9530
4.036238 0.9530 0.9530 0.9550 0.9550 0.9550
4.070000 0.9550 0.9550 0.9550 0.9550 0.9550
4.103238 0.9550 0.9530 0.9530 0.9530 0.9510
4.136000 0.9500 0.9500 0.9500 0.9480 0.9480
4.169238 0.9480 0.9460 0.9450 0.9430 0.9430
4.203000 0.9410 0.9430 0.9460 0.9480 0.9510
4.236238 0.9530 0.9530 0.9530 0.9530 0.9510
4.269000 0.9510 0.9510 0.9510 0.9510 0.9510
4.302238 0.9510 0.9510 0.9510 0.9500 0.9460
4.336000 0.9460 0.9430 0.9430 0.9450 0.9460
4.369238 0.9460 0.9500 0.9510 0.9510 0.9510
4.402000 0.9530 0.9530 0.9530 0.9510 0.9510
4.435238 0.9510 0.9510 0.9530 0.9530 0.9550
4.468000 0.9550 0.9560 0.9560 0.9560 0.9550
4.501238 0.9560 0.9560 0.9560 0.9580 0.9580
4.535000 0.9580 0.9580 0.9580 0.9600 0.9600
4.568238 0.9600 0.9610 0.9610 0.9610 0.9610
4.601000 0.9610 0.9610 0.9610 0.9610 0.9630
4.634238 0.9630 0.9630 0.9630 0.9630 0.9630
4.668000 0.9630 0.9630 0.9630 0.9630 0.9630
4.701238 0.9630 0.9630 0.9650 0.9650 0.9660
4.734000 0.9660 0.9650 0.9650 0.9650 0.9650
4.767238 0.9650 0.9630 0.9630 0.9630 0.9630
4.801000 0.9630 0.9630 0.9630 0.9630 0.9630
4.834238 0.9630 0.9630 0.9630 0.9630 0.9630
4.867000 0.9630 0.9630 0.9630 0.9630 0.9630
4.900238 0.9630 0.9630 0.9650 0.9650 0.9650
4.934000 0.9650 0.9650 0.9650 0.9650 0.9650
4.967238 0.9650 0.9650 0.9660 0.9660 0.9660
5.000000 0.9680 0.9680 0.9660 0.9660 0.9660
5.033238 0.9660 0.9650 0.9630 0.9530 0.9530
5.066000 0.9600 0.9630 0.9630 0.9650 0.9680
5.099238 0.9660 0.9660 0.9660 0.9660 0.9660
5.133000 0.9660 0.9660 0.9650 0.9650 0.9660
5.166238 0.9660 0.9680 0.9680 0.9680 0.9660
5.199000 0.9650 0.9660 0.9650 0.9650 0.9650
5.232238 0.9630 0.9630 0.9630 0.9630 0.9630
5.266000 0.9630 0.9610 0.9610 0.9600 0.9600
5.299238 0.9600 0.9600 0.9600 0.9610 0.9610
5.332000 0.9610 0.9600 0.9610 0.9610 0.9610
5.365238 0.9600 0.9600 0.9600 0.9600 0.9600
5.399000 0.9600 0.9560 0.9560 0.9550 0.9530
5.432238 0.9530 0.9530 0.9530 0.9530 0.9530
5.465000 0.9530 0.9530 0.9530 0.9530 0.9560
5.498238 0.9560 0.9550 0.9550 0.9550 0.9550
5.532000 0.9550 0.9550 0.9550 0.9550 0.9560
5.565238 0.9560 0.9550 0.9550 0.9550 0.9560
5.598000 0.9550 0.9550 0.9550 0.9530 0.9530
5.631238 0.9510 0.9500 0.9500 0.9480 0.9480
5.664000 0.9480 0.9480 0.9480 0.9480 0.9480
5.697238 0.9430 0.9350 0.9330 0.9330 0.9330
5.731000 0.9330 0.9330 0.9330 0.9330 0.9330
5.764238 0.9330 0.9350 0.9360 0.9360 0.9380
5.797000 0.9400 0.9380 0.9380 0.9360 0.9350
5.830238 0.9350 0.9350 0.9330 0.9350 0.9350
5.864000 0.9350 0.9350 0.9330 0.9310 0.9300
5.897238 0.9300 0.9300 0.9300 0.9300 0.9280
5.930000 0.9280 0.9250 0.9210 0.9200 0.9200
5.963238 0.9180 0.9180 0.9180 0.9180 0.9180
5.997000 0.9160 0.9180 0.9200 0.9200 0.9210
6.030238 0.9210 0.9210 0.9210 0.9200 0.9180
6.063000 0.9130 0.9080 0.9080 0.9110 0.9130
6.096238 0.9180 0.9210 0.9210 0.9210 0.9210
6.130000 0.9230 0.9250 0.9280 0.9310 0.9310
6.163238 0.9330 0.9310 0.9310 0.9310 0.9310
6.196000 0.9300 0.9310 0.9310 0.9310 0.9330
6.229238 0.9310 0.9310 0.9310 0.9310 0.9330
6.262000 0.9330 0.9330 0.9330 0.9330 0.9450
6.295238 0.9450 0.9310 0.9260 0.9260 0.9260
6.329000 0.9250 0.9230 0.9210 0.9200 0.9200
6.362238 0.9180 0.9160 0.9160 0.9150 0.9130
6.395000 0.9100 0.9060 0.9060 0.9030 0.9030
6.428238 0.9030 0.9080 0.9060 0.9050 0.9030
6.462000 0.9000 0.8950 0.8920 0.8920 0.8930
6.495238 0.8930 0.8930 0.8980 0.8930 0.8920
6.528000 0.8880 0.8850 0.8800 0.8730 0.8720
6.561238 0.8700 0.8680 0.8680 0.8680 0.8670
6.595000 0.8620 0.8550 0.8480 0.8420 0.8370
6.628238 0.8350 0.8330 0.8250 0.8120 0.8000
6.661000 0.7950 0.7870 0.7750 0.7540 0.7340
6.694238 0.7170 0.6940 0.6770 0.6490 0.6310
6.728000 0.6040 0.5740 0.5260 0.4730 0.4200
6.761238 0.3450 0.2590 0.1970 0.1760 0.1570
6.794000 0.1270 0.1090 0.0960 0.0760 0.0760
6.827238 0.0790 0.0810 0.0940 0.1140 0.1470
6.860000 0.1770 0.2020 0.2420 0.2570 0.2670
6.893238 0.2700 0.2720 0.2720 0.2720 0.2740
6.927000 0.2900 0.3330 0.4280 0.5030 0.5560
6.960238 0.5940 0.6140 0.6440 0.6670 0.6890
6.993000 0.7040 0.7150 0.7270 0.7390 0.7490
7.026238 0.7550 0.7620 0.7700 0.7750 0.7800
7.060000 0.7820 0.7840 0.7850 0.7850 0.7850
7.093238 0.7840 0.7800 0.7770 0.7690 0.7620
7.126000 0.7540 0.7440 0.7290 0.7070 0.6840
7.159238 0.6560 0.6320 0.6110 0.5790 0.5340
7.193000 0.4630 0.4330 0.2990 0.2520 0.2290
7.226238 0.2170 0.2070 0.2070 0.2120 0.2470
7.259000 0.3170 0.3850 0.4360 0.4800 0.5560
7.292238 0.5990 0.6270 0.6610 0.6790 0.7000
7.326000 0.7170 0.7290 0.7370 0.7420 0.7450
7.359238 0.7470 0.7470 0.7470 0.7470 0.7470
7.392000 0.7470 0.7490 0.7490 0.7470 0.7450
7.425238 0.7450 0.7590 0.7590 0.7390 0.7000
7.458000 0.6640 0.6390 0.6170 0.5890 0.5890
7.491238 0.5930 0.6190 0.6620 0.6860 0.6990
7.525000 0.7170 0.7320 0.7420 0.7470 0.7490
7.558238 0.7490 0.7470 0.7470 0.7250 0.7050
7.591000 0.6820 0.6540 0.6040 0.5710 0.5530
7.624238 0.5440 0.5430 0.5430 0.5430 0.5630
7.658000 0.5630 0.5480 0.5060 0.4530 0.4100
7.691238 0.3920 0.3880 0.3930 0.4450 0.5000
7.724000 0.5290 0.5440 0.5490 0.5490 0.5460
7.757238 0.5240 0.5030 0.4800 0.4660 0.4530
7.791000 0.4510 0.4530 0.4580 0.4630 0.4680
7.824238 0.4780 0.4850 0.4960 0.5080 0.5230
7.857000 0.5360 0.5560 0.5740 0.5960 0.5960
7.890238 0.5830 0.5730 0.5460 0.5190 0.4960
7.924000 0.4900 0.4860 0.4930 0.5330 0.5530
7.957238 0.5780 0.5890 0.5940 0.5960 0.5960
7.990000 0.5980 0.6060 0.6220 0.6510 0.6820
8.023238 0.7200 0.7450 0.7720 0.7940 0.8070
8.056000 0.8200 0.8320 0.8380 0.8500 0.8550
8.089238 0.8580 0.8620 0.8650 0.8670 0.8670
8.123000 0.8670 0.8670 0.8680 0.8700 0.8700
8.156238 0.8720 0.8720 0.8720 0.8720 0.8700
8.189000 0.8680 0.8650 0.8580 0.8520 0.8480
8.222238 0.8400 0.8300 0.8120 0.7990 0.7890
8.256000 0.7750 0.7670 0.7640 0.7600 0.7640
8.289238 0.7790 0.7990 0.8130 0.8200 0.8280
8.322000 0.8400 0.8500 0.8620 0.8630 0.8650
8.355238 0.8670 0.8680 0.8680 0.8700 0.8720
8.389000 0.8720 0.8750 0.8770 0.8780 0.8780
8.422238 0.8820 0.8830 0.8830 0.8830 0.8830
8.455000 0.8830 0.8830 0.8780 0.8770 0.8700
8.488238 0.8650 0.8630 0.8620 0.8620 0.8600
8.522000 0.8600 0.8600 0.8600 0.8580 0.8570
8.555238 0.8520 0.8430 0.8370 0.8280 0.8100
8.588000 0.7990 0.7900 0.7770 0.7620 0.7590
8.621238 0.7590 0.7670 0.7740 0.7870 0.7990
8.654000 0.8080 0.8150 0.8180 0.8220 0.8320
8.687238 0.8420 0.8470 0.8520 0.8550 0.8600
8.721000 0.8670 0.8650 0.8600 0.8580 0.8600
8.754238 0.8600 0.8600 0.8620 0.8630 0.8630
8.787000 0.8630 0.8630 0.8630 0.8630 0.8630
8.820238 0.8630 0.8630 0.8630 0.8630 0.8620
8.854000 0.8620 0.8600 0.8600 0.8600 0.8600
8.887238 0.8600 0.8600 0.8600 0.8600 0.8620
8.920000 0.8620 0.8620 0.8620 0.8620 0.8620
8.953238 0.8600 0.8580 0.8580 0.8570 0.8550
8.987000 0.8530 0.8520 0.8480 0.8470 0.8470
9.020238 0.8480 0.8480 0.8470 0.8470 0.8480
9.053000 0.8480 0.8480 0.8480 0.8480 0.8480
9.086238 0.8470 0.8470 0.8380 0.8350 0.8300
9.120000 0.8270 0.8230 0.8200 0.8200 0.8200
9.153238 0.8200 0.8200 0.8200 0.8200 0.8200
9.186000 0.8200 0.8170 0.8150 0.8080 0.8020
9.219238 0.8020 0.8100 0.8170 0.8200 0.8230
9.252000 0.8250 0.8270 0.8270 0.8280 0.8320
9.285238 0.8380 0.8450 0.8500 0.8550 0.8620
9.319000 0.8670 0.8680 0.8720 0.8730 0.8730
9.352238 0.8750 0.8770 0.8780 0.8780 0.8800
9.385000 0.8820 0.8820 0.8830 0.8870 0.8880
9.418238 0.8880 0.8900 0.8900 0.8900 0.8900
9.452000 0.8900 0.8900 0.8900 0.8900 0.8900
9.485238 0.8900 0.8900 0.8900 0.8900 0.8900
9.518000 0.8900 0.8900 0.8900 0.8900 0.8900
9.551238 0.8880 0.8850 0.8830 0.8780 0.8730
9.585000 0.8680 0.8630 0.8580 0.8520 0.8470
9.618238 0.8430 0.8400 0.8380 0.8330 0.8300
9.651000 0.8280 0.8270 0.8270 0.8270 0.8270
9.684238 0.8270 0.8270 0.8270 0.8250 0.8250
9.718000 0.8250 0.8250 0.8250 0.8250 0.8250
9.751238 0.8200 0.8170 0.8080 0.8080 0.8050
9.784000 0.8000 0.7940 0.7890 0.7820 0.7820
9.817238 0.7790 0.7770 0.7770 0.7770 0.7770
9.850000 0.7770 0.7750 0.7720 0.7720 0.7700
9.883238 0.7650 0.7620 0.7550 0.7490 0.7420
9.917000 0.7370 0.7290 0.7240 0.7220 0.7220
9.950238 0.7220 0.7240 0.7250 0.7340 0.7500
9.983000 0.7650 0.7770 0.7870 0.7940 0.8020
10.016238 0.8080 0.8130 0.8170 0.8220 0.8250
10.050000 0.8250 0.8270 0.8300 0.8320 0.8320
10.083238 0.8320 0.8300 0.8280 0.8250 0.8170
10.116000 0.8050 0.8000 0.7990 0.7870 0.7750
10.149238 0.7600 0.7450 0.7350 0.7290 0.7190
10.183000 0.7090 0.7020 0.6920 0.6840 0.6740
10.216238 0.6720 0.6610 0.6510 0.6410 0.6310
10.249000 0.6210 0.6090 0.5960 0.5810 0.5660
10.282238 0.5580 0.5540 0.5510 0.5490 0.5510
10.316000 0.5530 0.5660 0.5880 0.6110 0.6370
10.349238 0.6610 0.6820 0.6970 0.7170 0.7370
10.382000 0.7490 0.7740 0.7850 0.8020 0.8170
10.415238 0.8180 0.8230 0.8280 0.8330 0.8420
10.449000 0.8520 0.8580 0.8620 0.8650 0.8650
10.482238 0.8680 0.8730 0.8780 0.8800 0.8780
10.515000 0.8750 0.8750 0.8730 0.8730 0.8730
10.548238 0.8730 0.8730 0.8730 0.8730 0.8720
10.581000 0.8700 0.8650 0.8630 0.8600 0.8570
10.614238 0.8550 0.8520 0.8480 0.8470 0.8420
10.648000 0.8350 0.8250 0.8170 0.8030 0.7890
10.681238 0.7770 0.7550 0.7390 0.7240 0.7020
10.714000 0.6740 0.6520 0.6340 0.6190 0.6020
10.747238 0.5960 0.5780 0.5630 0.5590 0.5580
10.781000 0.5530 0.5530 0.5560 0.5580 0.5660
10.814238 0.5760 0.5960 0.6010 0.6120 0.6210
10.847000 0.6290 0.6320 0.6340 0.6340 0.6270
10.880238 0.6240 0.6160 0.6090 0.6020 0.6010
10.914000 0.5990 0.6010 0.6010 0.6040 0.6120
10.947238 0.6270 0.6610 0.6860 0.6960 0.7090
10.980000 0.7200 0.7490 0.7670 0.7790 0.7920
11.013238 0.7950 0.8030 0.8070 0.8180 0.8280
11.047000 0.8320 0.8400 0.8430 0.8480 0.8520
11.080238 0.8530 0.8550 0.8580 0.8600 0.8620
11.113000 0.8620 0.8620 0.8620 0.8600 0.8570
11.146238 0.8530 0.8450 0.8350 0.8250 0.8130
11.179000 0.8020 0.7920 0.7790 0.7720 0.7690
11.212238 0.7640 0.7620 0.7640 0.7670 0.7720
11.246000 0.7870 0.7990 0.8020 0.8080 0.8150
11.279238 0.8200 0.8230 0.8250 0.8250 0.8250
11.312000 0.8250 0.8250 0.8230 0.8220 0.8180
11.345238 0.8150 0.8130 0.8130 0.8130 0.8130
11.379000 0.8150 0.8170 0.8180 0.8250 0.8280
11.412238 0.8330 0.8370 0.8450 0.8480 0.8530
11.445000 0.8570 0.8600 0.8630 0.8650 0.8680
11.478238 0.8700 0.8720 0.8730 0.8750 0.8800
11.512000 0.8820 0.8870 0.8920 0.8930 0.8950
11.545238 0.8980 0.9000 0.9030 0.9050 0.9060
11.578000 0.9080 0.9100 0.9130 0.9160 0.9160
11.611238 0.9180 0.9180 0.9180 0.9200 0.9200
11.645000 0.9210 0.9210 0.9210 0.9210 0.9210
11.678238 0.9230 0.9230 0.9250 0.9250 0.9260
11.711000 0.9260 0.9260 0.9280 0.9280 0.9280
11.744238 0.9280 0.9300 0.9300 0.9300 0.9310
11.777000 0.9310 0.9310 0.9310 0.9310 0.9300
11.810238 0.9330 0.9330 0.9350 0.9350 0.9350
11.844000 0.9350 0.9350 0.9350 0.9350 0.9350
11.877238 0.9350 0.9350 0.9350 0.9350 0.9350
11.910000 0.9350 0.9350 0.9350 0.9350 0.9350
11.943238 0.9350 0.9350 0.9350 0.9350 0.9350
11.977000 0.9350 0.9350 0.9350 0.9350 0.9330
12.010238 0.9330 0.9330 0.9310 0.9300 0.9280
12.043000 0.9260 0.9260 0.9250 0.9230 0.9200
12.076238 0.9180 0.9150 0.9150 0.9130 0.9130
12.110000 0.9110 0.9100 0.9050 0.9030 0.9010
12.143238 0.9000 0.8980 0.8970 0.8880 0.8870
12.176000 0.8830 0.8800 0.8750 0.8680 0.8650
12.209238 0.8630 0.8620 0.8580 0.8570 0.8550
12.243000 0.8530 0.8500 0.8470 0.8370 0.8300
12.276238 0.8180 0.8080 0.8030 0.7990 0.7900
12.309000 0.7790 0.7650 0.7500 0.7340 0.7270
12.342238 0.7200 0.7150 0.7100 0.7050 0.7050
12.375000 0.7040 0.7020 0.7020 0.7020 0.7020
12.408238 0.7020 0.7040 0.7090 0.7140 0.7220
12.442000 0.7270 0.7290 0.7320 0.7340 0.7350
12.475238 0.7350 0.7390 0.7400 0.7400 0.7420
12.508000 0.7440 0.7450 0.7490 0.7520 0.7540
12.541238 0.7550 0.7590 0.7650 0.7720 0.7740
12.575000 0.7750 0.7750 0.7750 0.7770 0.7750
12.608238 0.7740 0.7740 0.7740 0.7720 0.7690
12.641000 0.7650 0.7570 0.7500 0.7420 0.7340
12.674238 0.7240 0.7140 0.7040 0.6970 0.6860
12.708000 0.6690 0.6540 0.6420 0.6310 0.6140
12.741238 0.6020 0.5960 0.5760 0.5630 0.5510
12.774000 0.5460 0.5330 0.5180 0.5000 0.4850
12.807238 0.4680 0.4560 0.4460 0.4260 0.4110
12.841000 0.4000 0.3950 0.3880 0.3870 0.3850
12.874238 0.3830 0.3830 0.3830 0.3850 0.3850
12.907000 0.3870 0.3880 0.3880 0.3880 0.3870
12.940238 0.3830 0.3770 0.3720 0.3670 0.3620
12.973000 0.3620 0.3570 0.3550 0.3570 0.3580
13.006238 0.3700 0.3880 0.4100 0.4310 0.4460
13.040000 0.4710 0.5030 0.5210 0.5540 0.5760
13.073238 0.5960 0.6090 0.6270 0.6460 0.6570
13.106000 0.6690 0.6790 0.6860 0.6970 0.7040
13.139238 0.7100 0.7150 0.7240 0.7270 0.7300
13.173000 0.7320 0.7340 0.7390 0.7400 0.7420
13.206238 0.7440 0.7440 0.7440 0.7450 0.7450
13.239000 0.7450 0.7450 0.7440 0.7420 0.7420
13.272238 0.7400 0.7390 0.7340 0.7300 0.7200
13.306000 0.7190 0.7140 0.7090 0.7050 0.7000
13.339238 0.6960 0.6840 0.6770 0.6710 0.6620
13.372000 0.6540 0.6460 0.6390 0.6260 0.6170
13.405238 0.6020 0.5830 0.5760 0.5590 0.5480
13.439000 0.5330 0.5040 0.4800 0.4700 0.4630
13.472238 0.4480 0.4260 0.4010 0.3800 0.3570
13.505000 0.3420 0.3230 0.3080 0.2870 0.2720
13.538238 0.2540 0.2420 0.2240 0.2140 0.2020
13.571000 0.1870 0.1740 0.1660 0.1540 0.1410
13.604238 0.1340 0.1260 0.1210 0.1160 0.1120
13.638000 0.1070 0.1020 0.0990 0.0960 0.0940
13.671238 0.0940 0.0940 0.0930 0.0930 0.0910
13.704000 0.0910 0.0910 0.0910 0.0910 0.0910
13.737238 0.0910 0.0910 0.0930 0.0940 0.1010
13.771000 0.1070 0.1120 0.1170 0.1210 0.1340
13.804238 0.1410 0.1570 0.1760 0.1940 0.1990
13.837000 0.2190 0.2370 0.2540 0.2770 0.2940
13.870238 0.3150 0.3400 0.3630 0.3780 0.3950
13.904000 0.4030 0.4210 0.4360 0.4510 0.4680
13.937238 0.4910 0.5000 0.5110 0.5240 0.5380
13.970000 0.5480 0.5610 0.5710 0.5810 0.5890
14.003238 0.5990 0.6060 0.6170 0.6270 0.6320
14.037000 0.6390 0.6420 0.6510 0.6590 0.6660
14.070238 0.6710 0.6740 0.6760 0.6790 0.6860
14.103000 0.6910 0.6920 0.6970 0.6990 0.7020
14.136238 0.7050 0.7090 0.7120 0.7140 0.7150
14.169000 0.7200 0.7240 0.7250 0.7250 0.7270
14.202238 0.7290 0.7290 0.7300 0.7320 0.7340
14.236000 0.7340 0.7350 0.7350 0.7350 0.7370
14.269238 0.7370 0.7370 0.7370 0.7370 0.7390
14.302000 0.7390 0.7390 0.7390 0.7390 0.7370
14.335238 0.7350 0.7340 0.7320 0.7320 0.7300
14.369000 0.7270 0.7250 0.7240 0.7240 0.7140
14.402238 0.7050 0.7000 0.6990 0.6970 0.6910
14.435000 0.6860 0.6760 0.6690 0.6640 0.6590
14.468238 0.6490 0.6410 0.6320 0.6210 0.6120
14.502000 0.6020 0.5840 0.5780 0.5590 0.5490
14.535238 0.5340 0.5140 0.5010 0.4860 0.4730
14.568000 0.4600 0.4430 0.4230 0.4100 0.3920
14.601238 0.3750 0.3630 0.3550 0.3480 0.3330
14.635000 0.3250 0.3200 0.3080 0.3000 0.2950
14.668238 0.2900 0.2890 0.2850 0.2850 0.2850
14.701000 0.2850 0.2850 0.2850 0.2850 0.2850
14.734238 0.2870 0.2900 0.2940 0.3050 0.3100
14.767000 0.3170 0.3270 0.3350 0.3420 0.3580
14.800238 0.3770 0.3870 0.3980 0.4060 0.4210
14.834000 0.4310 0.4460 0.4600 0.4710 0.4880
14.867238 0.5000 0.5060 0.5160 0.5240 0.5430
14.900000 0.5490 0.5630 0.5690 0.5780 0.5880
14.933238 0.5980 0.6010 0.6060 0.6170 0.6260
14.967000 0.6310 0.6390 0.6510 0.6610 0.6710
15.000238 0.6760 0.6820 0.6870 0.6940 0.6990
15.033000 0.7020 0.7040 0.7040 0.7040 0.7050
15.066238 0.7070 0.7090 0.7100 0.7100 0.7100
15.100000 0.7100 0.7100 0.7120 0.7120 0.7120
15.133238 0.7140 0.7140 0.7140 0.7150 0.7150
15.166000 0.7150 0.7150 0.7150 0.7150 0.7150
15.199238 0.7150 0.7150 0.7170 0.7190 0.7200
15.233000 0.7200 0.7220 0.7220 0.7220 0.7220
15.266238 0.7200 0.7220 0.7220 0.7220 0.7220
15.299000 0.7220 0.7220 0.7220 0.7220 0.7220
15.332238 0.7220 0.7220 0.7220 0.7240 0.7240
15.365000 0.7240 0.7240 0.7220 0.7220 0.7220
15.398238 0.7220 0.7220 0.7220 0.7220 0.7220
15.432000 0.7220 0.7220 0.7220 0.7220 0.7220
15.465238 0.7240 0.7240 0.7240 0.7240 0.7240
15.498000 0.7240 0.7240 0.7240 0.7240 0.7240
15.531238 0.7240 0.7220 0.7200 0.7200 0.7200
15.565000 0.7200 0.7200 0.7200 0.7200 0.7200
15.598238 0.7200 0.7200 0.7190 0.7200 0.7200
15.631000 0.7200 0.7200 0.7200 0.7200 0.7200
15.664238 0.7200 0.7200 0.7200 0.7200 0.7200
15.698000 0.7200 0.7200 0.7200 0.7200 0.7200
15.731238 0.7200 0.7200 0.7200 0.7200 0.7200
15.764000 0.7200 0.7200 0.7200 0.7200 0.7190
15.797238 0.7190 0.7190 0.7190 0.7190 0.7200
15.831000 0.7200 0.7200 0.7200 0.7200 0.7200
15.864238 0.7200 0.7200 0.7200 0.7200 0.7200
15.897000 0.7200 0.7200 0.7200 0.7200 0.7200
15.930238 0.7200 0.7200 0.7220 0.7220 0.7220
15.963000 0.7200 0.7200 0.7200 0.7200 0.7200
##END=
