##TITLE=2,3-DICHLORO-1-PROPANOL
##JCAMP-DX=4.24
##DATA TYPE=INFRARED SPECTRUM
##CLASS=COBLENTZ
##ORIGIN=STANDARD OIL OF OHIO
##OWNER=COBLENTZ SOCIETY
Collection (C) 2018 copyright by the U.S. Secretary of Commerce
on behalf of the United States of America. All rights reserved.
##DATE=Not specified, most likely prior to 1970
##CAS REGISTRY NO=616-23-9
##MOLFORM=C3 H6 Cl2 O
##SOURCE REFERENCE=COBLENTZ NO. 2067
##$NIST SOURCE=COBLENTZ
##$NIST IMAGE=cob2067
##SPECTROMETER/DATA SYSTEM=PERKIN-ELMER
##STATE=LIQUID
##PATH LENGTH=0.0015 CM
##SAMPLING PROCEDURE=TRANSMISSION
##RESOLUTION=4
##DATA PROCESSING=DIGITIZED BY NIST FROM HARD COPY
##XUNITS=MICROMETERS
##YUNITS=TRANSMITTANCE
##XFACTOR=1.000000
##YFACTOR=1
##DELTAX=000.006771
##FIRSTX=2.027
##LASTX=15.3999
##FIRSTY=0.984
##MAXX=15.3999
##MINX=2.027
##MAXY=0.982
##MINY=0.047
##NPOINTS=1976
##XYDATA=(X++(Y..Y))
2.027000 0.9840 0.9820 0.9820 0.9810 0.9810
2.060871 0.9810 0.9770 0.9760 0.9760 0.9760
2.095000 0.9740 0.9720 0.9720 0.9740 0.9740
2.128871 0.9740 0.9740 0.9740 0.9760 0.9760
2.162000 0.9760 0.9760 0.9760 0.9760 0.9770
2.195871 0.9770 0.9790 0.9810 0.9810 0.9810
2.230000 0.9810 0.9790 0.9770 0.9760 0.9710
2.263871 0.9640 0.9590 0.9550 0.9550 0.9550
2.298000 0.9570 0.9590 0.9600 0.9600 0.9600
2.331871 0.9600 0.9600 0.9600 0.9600 0.9590
2.366000 0.9590 0.9600 0.9600 0.9600 0.9620
2.399871 0.9620 0.9600 0.9600 0.9620 0.9620
2.433000 0.9640 0.9640 0.9650 0.9650 0.9650
2.466871 0.9650 0.9650 0.9650 0.9640 0.9620
2.501000 0.9600 0.9550 0.9550 0.9540 0.9540
2.534871 0.9540 0.9540 0.9540 0.9540 0.9550
2.569000 0.9570 0.9570 0.9590 0.9590 0.9590
2.602871 0.9600 0.9600 0.9600 0.9620 0.9620
2.636000 0.9640 0.9650 0.9670 0.9670 0.9670
2.669871 0.9670 0.9670 0.9670 0.9650 0.9640
2.704000 0.9600 0.9570 0.9540 0.9500 0.9470
2.737871 0.9310 0.9090 0.8280 0.7730 0.7150
2.772000 0.6580 0.5980 0.5960 0.5100 0.4820
2.805871 0.4550 0.4180 0.3960 0.3800 0.3740
2.840000 0.3720 0.3650 0.3460 0.3140 0.2920
2.873871 0.2480 0.2190 0.2020 0.1660 0.1420
2.907000 0.1320 0.1250 0.1200 0.1130 0.1100
2.940871 0.1070 0.0910 0.0880 0.0860 0.0860
2.975000 0.0860 0.0860 0.0880 0.0900 0.1000
3.008871 0.1030 0.1100 0.1220 0.1340 0.1410
3.043000 0.1490 0.1610 0.1850 0.2040 0.2260
3.076871 0.2550 0.2730 0.2920 0.3180 0.3580
3.110000 0.3770 0.3920 0.4060 0.4400 0.4540
3.143871 0.4720 0.5390 0.5570 0.5710 0.5930
3.178000 0.6120 0.6270 0.6390 0.6510 0.6640
3.211871 0.6760 0.6920 0.7070 0.7140 0.7240
3.246000 0.7340 0.7430 0.7510 0.7600 0.7610
3.279871 0.7610 0.7610 0.7630 0.7630 0.7610
3.314000 0.7610 0.7560 0.7500 0.7360 0.7070
3.347871 0.6560 0.5730 0.5080 0.4890 0.4690
3.381000 0.4420 0.4200 0.4160 0.4160 0.4310
3.414871 0.4860 0.5420 0.5610 0.5620 0.5620
3.449000 0.5590 0.5510 0.5470 0.5510 0.5620
3.482871 0.5810 0.6120 0.6580 0.6760 0.6900
3.517000 0.6980 0.7120 0.7260 0.7390 0.7530
3.550871 0.7630 0.7720 0.7800 0.7890 0.8010
3.584000 0.8020 0.8060 0.8160 0.8230 0.8240
3.617871 0.8290 0.8310 0.8330 0.8350 0.8360
3.652000 0.8400 0.8400 0.8410 0.8430 0.8460
3.685871 0.8520 0.8550 0.8620 0.8670 0.8700
3.720000 0.8720 0.8740 0.8770 0.8790 0.8800
3.753871 0.8800 0.8820 0.8820 0.8840 0.8840
3.787000 0.8860 0.8860 0.8860 0.8860 0.8860
3.820871 0.8870 0.8870 0.8890 0.8890 0.8910
3.855000 0.8910 0.8920 0.8940 0.8960 0.8970
3.888871 0.8990 0.8990 0.9010 0.9010 0.9030
3.923000 0.9030 0.9040 0.9040 0.9080 0.9090
3.956871 0.9110 0.9110 0.9130 0.9130 0.9140
3.991000 0.9160 0.9160 0.9160 0.9160 0.9160
4.024871 0.9160 0.9160 0.9160 0.9180 0.9180
4.058000 0.9200 0.9200 0.9200 0.9200 0.9200
4.091871 0.9200 0.9180 0.9180 0.9180 0.9200
4.126000 0.9200 0.9200 0.9200 0.9210 0.9230
4.159871 0.9250 0.9260 0.9280 0.9300 0.9300
4.194000 0.9310 0.9310 0.9310 0.9310 0.9310
4.227871 0.9310 0.9310 0.9330 0.9330 0.9330
4.261000 0.9330 0.9330 0.9350 0.9350 0.9370
4.294871 0.9370 0.9380 0.9400 0.9400 0.9420
4.329000 0.9420 0.9420 0.9430 0.9430 0.9430
4.362871 0.9450 0.9450 0.9450 0.9470 0.9470
4.397000 0.9480 0.9480 0.9480 0.9480 0.9500
4.430871 0.9500 0.9520 0.9520 0.9520 0.9520
4.465000 0.9520 0.9540 0.9540 0.9570 0.9570
4.498871 0.9570 0.9570 0.9590 0.9590 0.9590
4.532000 0.9590 0.9590 0.9590 0.9590 0.9590
4.565871 0.9590 0.9590 0.9590 0.9590 0.9590
4.600000 0.9590 0.9570 0.9570 0.9570 0.9570
4.633871 0.9550 0.9550 0.9550 0.9550 0.9550
4.668000 0.9540 0.9540 0.9540 0.9540 0.9520
4.701871 0.9520 0.9500 0.9500 0.9500 0.9480
4.735000 0.9480 0.9480 0.9470 0.9470 0.9450
4.768871 0.9450 0.9450 0.9450 0.9430 0.9430
4.803000 0.9430 0.9430 0.9450 0.9450 0.9450
4.836871 0.9470 0.9470 0.9480 0.9500 0.9500
4.871000 0.9500 0.9520 0.9520 0.9540 0.9540
4.904871 0.9550 0.9550 0.9550 0.9570 0.9570
4.939000 0.9570 0.9570 0.9570 0.9570 0.9570
4.972871 0.9570 0.9570 0.9570 0.9590 0.9590
5.006000 0.9590 0.9590 0.9590 0.9590 0.9590
5.039871 0.9590 0.9600 0.9600 0.9600 0.9590
5.074000 0.9590 0.9590 0.9570 0.9550 0.9550
5.107871 0.9550 0.9550 0.9550 0.9570 0.9590
5.142000 0.9590 0.9600 0.9600 0.9620 0.9620
5.175871 0.9620 0.9620 0.9620 0.9620 0.9620
5.209000 0.9620 0.9640 0.9640 0.9640 0.9640
5.242871 0.9640 0.9640 0.9640 0.9640 0.9640
5.277000 0.9640 0.9650 0.9650 0.9650 0.9650
5.310871 0.9650 0.9650 0.9650 0.9650 0.9650
5.345000 0.9650 0.9650 0.9670 0.9670 0.9670
5.378871 0.9670 0.9670 0.9670 0.9670 0.9650
5.412000 0.9650 0.9640 0.9640 0.9620 0.9620
5.445871 0.9620 0.9620 0.9620 0.9600 0.9600
5.480000 0.9600 0.9600 0.9600 0.9600 0.9600
5.513871 0.9600 0.9600 0.9600 0.9620 0.9620
5.548000 0.9620 0.9620 0.9620 0.9640 0.9640
5.581871 0.9640 0.9640 0.9620 0.9620 0.9620
5.616000 0.9620 0.9600 0.9600 0.9600 0.9600
5.649871 0.9590 0.9590 0.9590 0.9590 0.9570
5.683000 0.9570 0.9570 0.9550 0.9550 0.9550
5.716871 0.9550 0.9540 0.9540 0.9520 0.9520
5.751000 0.9500 0.9500 0.9500 0.9480 0.9470
5.784871 0.9470 0.9450 0.9450 0.9450 0.9450
5.819000 0.9450 0.9430 0.9430 0.9430 0.9430
5.852871 0.9450 0.9450 0.9470 0.9470 0.9470
5.886000 0.9470 0.9470 0.9470 0.9470 0.9470
5.919871 0.9470 0.9470 0.9470 0.9480 0.9480
5.954000 0.9480 0.9470 0.9470 0.9450 0.9450
5.987871 0.9430 0.9420 0.9420 0.9400 0.9380
6.022000 0.9380 0.9370 0.9370 0.9350 0.9350
6.055871 0.9330 0.9310 0.9310 0.9300 0.9300
6.090000 0.9280 0.9280 0.9260 0.9250 0.9250
6.123871 0.9230 0.9210 0.9210 0.9210 0.9200
6.157000 0.9200 0.9200 0.9200 0.9200 0.9200
6.190871 0.9200 0.9200 0.9200 0.9200 0.9200
6.225000 0.9210 0.9210 0.9210 0.9230 0.9230
6.258871 0.9230 0.9230 0.9230 0.9230 0.9250
6.293000 0.9250 0.9250 0.9250 0.9250 0.9260
6.326871 0.9260 0.9260 0.9260 0.9260 0.9280
6.360000 0.9280 0.9260 0.9260 0.9260 0.9260
6.393871 0.9250 0.9250 0.9250 0.9250 0.9250
6.428000 0.9230 0.9230 0.9210 0.9210 0.9210
6.461871 0.9210 0.9210 0.9200 0.9200 0.9200
6.496000 0.9180 0.9160 0.9140 0.9140 0.9110
6.529871 0.9090 0.9090 0.9080 0.9060 0.9040
6.564000 0.9030 0.9030 0.9010 0.8970 0.8920
6.597871 0.8910 0.8870 0.8860 0.8820 0.8770
6.631000 0.8740 0.8700 0.8650 0.8600 0.8550
6.664871 0.8520 0.8450 0.8380 0.8310 0.8240
6.699000 0.8210 0.8110 0.8040 0.7950 0.7900
6.732871 0.7770 0.7630 0.7480 0.7290 0.7140
6.767000 0.7040 0.6850 0.6420 0.6070 0.5810
6.800871 0.5300 0.5030 0.4910 0.4770 0.4600
6.834000 0.4500 0.4420 0.4330 0.4260 0.4060
6.867871 0.3920 0.3920 0.3920 0.3920 0.3920
6.902000 0.3910 0.3740 0.3620 0.3530 0.3520
6.935871 0.3450 0.3400 0.3290 0.3210 0.3070
6.970000 0.3020 0.3010 0.2940 0.2920 0.2950
7.003871 0.3180 0.3430 0.3600 0.3750 0.3910
7.037000 0.4060 0.4230 0.4400 0.4540 0.4590
7.070871 0.4650 0.4710 0.4740 0.4760 0.4760
7.105000 0.4740 0.4740 0.4720 0.4710 0.4670
7.138871 0.4650 0.4620 0.4550 0.4520 0.4450
7.173000 0.4430 0.4430 0.4420 0.4400 0.4400
7.206871 0.4380 0.4380 0.4400 0.4400 0.4420
7.241000 0.4450 0.4520 0.4570 0.4650 0.4710
7.274871 0.4740 0.4810 0.4840 0.4880 0.4910
7.308000 0.4960 0.5000 0.5030 0.5050 0.5100
7.341871 0.5130 0.5170 0.5200 0.5270 0.5320
7.376000 0.5370 0.5420 0.5450 0.5520 0.5540
7.409871 0.5540 0.5520 0.5520 0.5440 0.5400
7.444000 0.5350 0.5300 0.5250 0.5220 0.5180
7.477871 0.5170 0.5170 0.5150 0.5150 0.5130
7.511000 0.5130 0.5110 0.5110 0.5110 0.5130
7.544871 0.5130 0.5130 0.5150 0.5170 0.5180
7.579000 0.5200 0.5230 0.5270 0.5300 0.5320
7.612871 0.5320 0.5300 0.5300 0.5280 0.5250
7.647000 0.5230 0.5220 0.5180 0.5080 0.5010
7.680871 0.4940 0.4860 0.4720 0.4520 0.4380
7.715000 0.4230 0.4040 0.3960 0.3940 0.3940
7.748871 0.3970 0.4010 0.4080 0.4130 0.4180
7.782000 0.4210 0.4260 0.4350 0.4420 0.4520
7.815871 0.4540 0.4590 0.4640 0.4710 0.4770
7.850000 0.4890 0.5050 0.5110 0.5170 0.5200
7.883871 0.5220 0.5220 0.5220 0.5220 0.5180
7.918000 0.5150 0.5050 0.4980 0.4910 0.4790
7.951871 0.4710 0.4620 0.4540 0.4430 0.4400
7.985000 0.4310 0.4280 0.4280 0.4260 0.4250
8.018871 0.4210 0.4210 0.4200 0.4200 0.4200
8.053000 0.4200 0.4210 0.4230 0.4260 0.4280
8.086871 0.4300 0.4280 0.4260 0.4230 0.4210
8.121000 0.4180 0.4140 0.4110 0.4110 0.4110
8.154871 0.4110 0.4110 0.4130 0.4300 0.4470
8.189000 0.4550 0.4590 0.4620 0.4640 0.4650
8.222871 0.4650 0.4670 0.4670 0.4690 0.4710
8.256000 0.4740 0.4770 0.4810 0.4820 0.4880
8.289871 0.5000 0.5110 0.5200 0.5270 0.5370
8.324000 0.5420 0.5520 0.5540 0.5610 0.5640
8.357871 0.5660 0.5730 0.5780 0.5850 0.5910
8.392000 0.6030 0.6070 0.6130 0.6170 0.6270
8.425871 0.6340 0.6390 0.6440 0.6540 0.6580
8.459000 0.6610 0.6640 0.6660 0.6660 0.6640
8.492871 0.6640 0.6610 0.6590 0.6540 0.6530
8.527000 0.6420 0.6360 0.6170 0.6050 0.6030
8.560871 0.5950 0.5910 0.5900 0.5880 0.5880
8.595000 0.5880 0.5910 0.6020 0.6070 0.6150
8.628871 0.6250 0.6420 0.6530 0.6710 0.6810
8.663000 0.6900 0.7020 0.7050 0.7120 0.7210
8.696871 0.7270 0.7360 0.7410 0.7510 0.7530
8.730000 0.7560 0.7610 0.7630 0.7670 0.7680
8.763871 0.7700 0.7720 0.7730 0.7750 0.7750
8.798000 0.7770 0.7770 0.7750 0.7720 0.7700
8.831871 0.7630 0.7550 0.7440 0.7360 0.7270
8.866000 0.7210 0.7040 0.6920 0.6780 0.6530
8.899871 0.6270 0.5860 0.5710 0.5490 0.5270
8.933000 0.5130 0.5060 0.4980 0.4590 0.4260
8.966871 0.4040 0.4010 0.3840 0.3690 0.3500
9.001000 0.3310 0.3280 0.3260 0.3210 0.3110
9.034871 0.3060 0.3010 0.2950 0.2920 0.2900
9.069000 0.2850 0.2820 0.2770 0.2750 0.2720
9.102871 0.2680 0.2650 0.2630 0.2600 0.2580
9.136000 0.2550 0.2530 0.2510 0.2460 0.2460
9.169871 0.2440 0.2440 0.2440 0.2460 0.2460
9.204000 0.2510 0.2530 0.2550 0.2560 0.2600
9.237871 0.2610 0.2610 0.2600 0.2600 0.2550
9.272000 0.2530 0.2460 0.2360 0.2290 0.2210
9.305871 0.2070 0.2020 0.1920 0.1760 0.1630
9.340000 0.1540 0.1440 0.1320 0.1250 0.1200
9.373871 0.1120 0.1050 0.0950 0.0880 0.0790
9.407000 0.0730 0.0660 0.0620 0.0570 0.0540
9.440871 0.0520 0.0510 0.0490 0.0490 0.0470
9.475000 0.0470 0.0470 0.0470 0.0490 0.0510
9.508871 0.0640 0.0730 0.0790 0.0880 0.1020
9.543000 0.1080 0.1290 0.1390 0.1410 0.1440
9.576871 0.1530 0.1610 0.1660 0.1780 0.1930
9.610000 0.2040 0.2050 0.2120 0.2170 0.2210
9.643871 0.2240 0.2260 0.2310 0.2320 0.2340
9.678000 0.2360 0.2380 0.2410 0.2440 0.2460
9.711871 0.2500 0.2510 0.2510 0.2530 0.2550
9.746000 0.2580 0.2600 0.2610 0.2630 0.2680
9.779871 0.2730 0.2800 0.2900 0.3040 0.3260
9.814000 0.3310 0.3500 0.3600 0.3740 0.3890
9.847871 0.4030 0.4160 0.4310 0.4420 0.4540
9.881000 0.4650 0.4810 0.4880 0.4960 0.5050
9.914871 0.5060 0.5100 0.5130 0.5150 0.5170
9.949000 0.5220 0.5250 0.5280 0.5320 0.5370
9.982871 0.5400 0.5450 0.5510 0.5540 0.5590
10.017000 0.5610 0.5610 0.5610 0.5590 0.5540
10.050871 0.5520 0.5440 0.5350 0.5170 0.5030
10.084000 0.4880 0.4720 0.4500 0.4280 0.4110
10.117871 0.3960 0.3840 0.3720 0.3550 0.3480
10.152000 0.3280 0.3120 0.3020 0.2940 0.2890
10.185871 0.2850 0.2840 0.2800 0.2800 0.2800
10.220000 0.2800 0.2800 0.2820 0.2840 0.2870
10.253871 0.2940 0.2990 0.3040 0.3060 0.3140
10.288000 0.3230 0.3380 0.3580 0.3820 0.3910
10.321871 0.4060 0.4230 0.4380 0.4540 0.4620
10.355000 0.4820 0.5420 0.5560 0.5680 0.5760
10.388871 0.5850 0.6020 0.6100 0.6290 0.6440
10.423000 0.6610 0.6750 0.6880 0.7000 0.7040
10.456871 0.7120 0.7190 0.7260 0.7310 0.7380
10.491000 0.7430 0.7460 0.7480 0.7510 0.7530
10.524871 0.7550 0.7560 0.7580 0.7580 0.7580
10.558000 0.7580 0.7560 0.7550 0.7530 0.7510
10.591871 0.7440 0.7410 0.7320 0.7240 0.7150
10.626000 0.7040 0.7000 0.6830 0.6580 0.6370
10.659871 0.6200 0.5510 0.5010 0.4860 0.4690
10.694000 0.4310 0.4010 0.3750 0.3530 0.3350
10.727871 0.3210 0.3070 0.2970 0.2850 0.2820
10.761000 0.2800 0.2800 0.2800 0.2800 0.2820
10.794871 0.2870 0.2900 0.2950 0.3040 0.3120
10.829000 0.3230 0.3360 0.3460 0.3620 0.3790
10.862871 0.3940 0.4080 0.4330 0.4640 0.4810
10.897000 0.4980 0.5470 0.5640 0.5860 0.6030
10.930871 0.6100 0.6220 0.6440 0.6610 0.6710
10.965000 0.6780 0.6870 0.6930 0.6980 0.7020
10.998871 0.7040 0.7050 0.7090 0.7100 0.7120
11.032000 0.7120 0.7120 0.7120 0.7120 0.7120
11.065871 0.7120 0.7120 0.7120 0.7120 0.7120
11.100000 0.7120 0.7120 0.7120 0.7140 0.7140
11.133871 0.7140 0.7140 0.7140 0.7120 0.7120
11.168000 0.7120 0.7140 0.7140 0.7140 0.7140
11.201871 0.7140 0.7140 0.7140 0.7140 0.7120
11.235000 0.7120 0.7120 0.7090 0.7050 0.7050
11.268871 0.7020 0.7000 0.6980 0.6970 0.6950
11.303000 0.6930 0.6920 0.6920 0.6930 0.6950
11.336871 0.6970 0.6980 0.7000 0.7050 0.7100
11.371000 0.7170 0.7260 0.7310 0.7340 0.7430
11.404871 0.7530 0.7530 0.7600 0.7630 0.7670
11.439000 0.7700 0.7730 0.7750 0.7780 0.7820
11.472871 0.7840 0.7850 0.7870 0.7890 0.7900
11.506000 0.7920 0.7940 0.7940 0.7940 0.7940
11.539871 0.7940 0.7940 0.7920 0.7900 0.7890
11.574000 0.7890 0.7870 0.7850 0.7850 0.7840
11.607871 0.7820 0.7820 0.7820 0.7820 0.7820
11.642000 0.7840 0.7840 0.7850 0.7850 0.7870
11.675871 0.7890 0.7890 0.7900 0.7900 0.7920
11.709000 0.7940 0.7970 0.7990 0.7990 0.8020
11.742871 0.8060 0.8070 0.8090 0.8110 0.8120
11.777000 0.8140 0.8180 0.8190 0.8190 0.8210
11.810871 0.8230 0.8240 0.8280 0.8290 0.8310
11.845000 0.8330 0.8350 0.8380 0.8410 0.8430
11.878871 0.8430 0.8450 0.8480 0.8500 0.8520
11.913000 0.8530 0.8530 0.8530 0.8530 0.8530
11.946871 0.8530 0.8530 0.8530 0.8530 0.8550
11.980000 0.8550 0.8550 0.8570 0.8570 0.8580
12.013871 0.8580 0.8580 0.8580 0.8600 0.8600
12.048000 0.8600 0.8600 0.8600 0.8600 0.8600
12.081871 0.8600 0.8600 0.8600 0.8600 0.8600
12.116000 0.8600 0.8580 0.8580 0.8580 0.8570
12.149871 0.8570 0.8570 0.8570 0.8570 0.8570
12.183000 0.8570 0.8570 0.8570 0.8570 0.8570
12.216871 0.8570 0.8550 0.8550 0.8550 0.8550
12.251000 0.8550 0.8550 0.8550 0.8550 0.8550
12.284871 0.8550 0.8550 0.8550 0.8530 0.8530
12.319000 0.8530 0.8530 0.8520 0.8520 0.8520
12.352871 0.8520 0.8500 0.8500 0.8500 0.8500
12.386000 0.8480 0.8480 0.8460 0.8450 0.8430
12.419871 0.8430 0.8410 0.8410 0.8400 0.8380
12.454000 0.8380 0.8380 0.8360 0.8360 0.8360
12.487871 0.8350 0.8350 0.8330 0.8330 0.8290
12.522000 0.8290 0.8280 0.8260 0.8240 0.8230
12.555871 0.8230 0.8210 0.8190 0.8180 0.8160
12.590000 0.8140 0.8120 0.8110 0.8090 0.8040
12.623871 0.8020 0.8020 0.8010 0.8010 0.7970
12.657000 0.7940 0.7920 0.7900 0.7870 0.7850
12.690871 0.7820 0.7780 0.7750 0.7720 0.7700
12.725000 0.7650 0.7610 0.7580 0.7550 0.7510
12.758871 0.7510 0.7440 0.7430 0.7390 0.7380
12.793000 0.7340 0.7290 0.7260 0.7220 0.7210
12.826871 0.7140 0.7120 0.7100 0.7050 0.7020
12.860000 0.7000 0.6980 0.6970 0.6930 0.6920
12.893871 0.6900 0.6870 0.6850 0.6830 0.6810
12.928000 0.6810 0.6800 0.6780 0.6760 0.6750
12.961871 0.6730 0.6710 0.6700 0.6680 0.6660
12.996000 0.6640 0.6630 0.6610 0.6590 0.6580
13.029871 0.6560 0.6530 0.6470 0.6410 0.6340
13.064000 0.6300 0.6190 0.6100 0.6030 0.6020
13.097871 0.5910 0.5830 0.5730 0.5690 0.5540
13.131000 0.5470 0.5370 0.5300 0.5150 0.5030
13.164871 0.5010 0.5000 0.4890 0.4810 0.4710
13.199000 0.4640 0.4500 0.4400 0.4310 0.4230
13.232871 0.4200 0.4160 0.4060 0.3990 0.3860
13.267000 0.3790 0.3700 0.3630 0.3530 0.3520
13.300871 0.3480 0.3400 0.3350 0.3290 0.3240
13.334000 0.3190 0.3140 0.3110 0.3020 0.2970
13.367871 0.2900 0.2840 0.2780 0.2720 0.2680
13.402000 0.2630 0.2510 0.2440 0.2380 0.2290
13.435871 0.2260 0.2210 0.2190 0.2100 0.2050
13.470000 0.2020 0.1980 0.1970 0.1950 0.1930
13.503871 0.1900 0.1870 0.1850 0.1850 0.1830
13.538000 0.1830 0.1830 0.1850 0.1850 0.1870
13.571871 0.1880 0.1880 0.1920 0.1930 0.2000
13.605000 0.2020 0.2050 0.2120 0.2190 0.2260
13.638871 0.2310 0.2380 0.2430 0.2510 0.2580
13.673000 0.2650 0.2730 0.2800 0.2890 0.2940
13.706871 0.3020 0.3040 0.3110 0.3160 0.3210
13.741000 0.3290 0.3330 0.3400 0.3460 0.3520
13.774871 0.3550 0.3580 0.3600 0.3620 0.3650
13.808000 0.3690 0.3700 0.3720 0.3720 0.3720
13.841871 0.3740 0.3740 0.3740 0.3740 0.3740
13.876000 0.3740 0.3740 0.3720 0.3720 0.3720
13.909871 0.3720 0.3740 0.3740 0.3750 0.3750
13.944000 0.3750 0.3750 0.3790 0.3800 0.3800
13.977871 0.3820 0.3840 0.3870 0.3890 0.3940
14.011000 0.3990 0.4030 0.4060 0.4090 0.4110
14.044871 0.4140 0.4200 0.4230 0.4260 0.4300
14.079000 0.4350 0.4380 0.4400 0.4430 0.4470
14.112871 0.4500 0.4500 0.4520 0.4540 0.4550
14.147000 0.4590 0.4590 0.4590 0.4590 0.4590
14.180871 0.4590 0.4600 0.4600 0.4600 0.4600
14.215000 0.4590 0.4590 0.4550 0.4540 0.4540
14.248871 0.4500 0.4470 0.4430 0.4400 0.4380
14.282000 0.4310 0.4280 0.4250 0.4210 0.4140
14.315871 0.4090 0.4030 0.4010 0.3970 0.3870
14.350000 0.3800 0.3720 0.3690 0.3620 0.3530
14.383871 0.3480 0.3400 0.3330 0.3290 0.3190
14.418000 0.3120 0.3060 0.2990 0.2890 0.2850
14.451871 0.2750 0.2650 0.2550 0.2460 0.2390
14.485000 0.2360 0.2290 0.2220 0.2140 0.2050
14.518871 0.2020 0.1970 0.1930 0.1920 0.1880
14.553000 0.1830 0.1780 0.1730 0.1700 0.1640
14.586871 0.1590 0.1580 0.1530 0.1510 0.1490
14.621000 0.1440 0.1410 0.1390 0.1370 0.1340
14.654871 0.1300 0.1290 0.1270 0.1240 0.1220
14.689000 0.1200 0.1190 0.1170 0.1150 0.1150
14.722871 0.1130 0.1120 0.1120 0.1100 0.1100
14.756000 0.1080 0.1080 0.1080 0.1080 0.1080
14.789871 0.1080 0.1080 0.1080 0.1080 0.1080
14.824000 0.1080 0.1080 0.1080 0.1080 0.1070
14.857871 0.1070 0.1050 0.1030 0.1030 0.1030
14.892000 0.1030 0.1050 0.1070 0.1080 0.1100
14.925871 0.1120 0.1130 0.1150 0.1170 0.1190
14.959000 0.1220 0.1290 0.1340 0.1410 0.1420
14.992871 0.1560 0.1610 0.1660 0.1710 0.1750
15.027000 0.1870 0.1880 0.1920 0.1930 0.1970
15.060871 0.2100 0.2240 0.2290 0.2320 0.2390
15.095000 0.2440 0.2500 0.2530 0.2580 0.2610
15.128871 0.2670 0.2720 0.2750 0.2780 0.2820
15.163000 0.2890 0.2990 0.3020 0.3110 0.3140
15.196871 0.3160 0.3210 0.3290 0.3290 0.3310
15.230000 0.3350 0.3400 0.3410 0.3450 0.3500
15.263871 0.3530 0.3550 0.3570 0.3600 0.3620
15.298000 0.3650 0.3670 0.3700 0.3720 0.3740
15.331871 0.3770 0.3790 0.3800 0.3820 0.3860
15.366000 0.3890 0.4010 0.4040 0.4060 0.4080
15.399871 0.4080
##END=
