##TITLE=ETHANE, 1,1,1,2-TETRACHLORO-
##JCAMP-DX=4.24
##DATA TYPE=INFRARED SPECTRUM
##CLASS=COBLENTZ III
##ORIGIN=DOW CHEMICAL COMPANY
##OWNER=COBLENTZ SOCIETY
Collection (C) 2018 copyright by the U.S. Secretary of Commerce
on behalf of the United States of America. All rights reserved.
##DATE=1980/04/14
##NAMES=1,1,1,2-tetrachloroethane
##CAS REGISTRY NO=630-20-6
##MOLFORM=C2 H2 Cl4
##BP=139 C
##SOURCE REFERENCE=COBLENTZ NO. 10642
##$NIST SOURCE=COBLENTZ
##$NIST IMAGE=cob10642
##SPECTROMETER/DATA SYSTEM=PERKIN-ELMER 283
##STATE=NEAT
##PATH LENGTH=KBr PLATES
##SAMPLING PROCEDURE=TRANSMISSION
##RESOLUTION=4
##DATA PROCESSING=DIGITIZED BY NIST FROM HARD COPY (FROM TWO SEGMENTS)
##XUNITS=1/CM
##YUNITS=TRANSMITTANCE
##XFACTOR=1.000000
##YFACTOR=1
##DELTAX=1.146955
##FIRSTX=206.165
##LASTX=4020.94
##FIRSTY=0.004
##MAXX=4020.94
##MINX=206.165
##MAXY=0.95
##MINY=0
##NPOINTS=3327
##XYDATA=(X++(Y..Y))
206.165000 0.0040 0.0040 0.0030 0.0030 0.0030
211.899775 0.0020 0.0020 0.0010 0.0010 0.0010
217.634551 0.0010 0.0010 0.0010 0.0010 0.0000
223.369326 0.0000 0.0000 0.0000 0.0000 0.0000
229.104102 0.0000 0.0000 0.0000 0.0010 0.0010
234.838877 0.0010 0.0020 0.0020 0.0020 0.0020
240.573652 0.0030 0.0040 0.0050 0.0050 0.0050
246.308428 0.0050 0.0050 0.0050 0.0060 0.0070
252.043203 0.0090 0.0090 0.0100 0.0100 0.0100
257.777979 0.0100 0.0100 0.0100 0.0110 0.0120
263.512754 0.0120 0.0120 0.0110 0.0110 0.0100
269.247530 0.0100 0.0100 0.0090 0.0090 0.0090
274.982305 0.0090 0.0090 0.0090 0.0100 0.0100
280.717080 0.0100 0.0110 0.0110 0.0100 0.0090
286.451856 0.0090 0.0070 0.0060 0.0060 0.0060
292.186631 0.0060 0.0060 0.0060 0.0060 0.0070
297.921407 0.0070 0.0090 0.0100 0.0100 0.0110
303.656182 0.0120 0.0130 0.0130 0.0150 0.0170
309.390957 0.0190 0.0220 0.0250 0.0280 0.0290
315.125733 0.0290 0.0300 0.0310 0.0310 0.0340
320.860508 0.0350 0.0370 0.0370 0.0390 0.0430
326.595284 0.0460 0.0470 0.0500 0.0520 0.0540
332.330059 0.0560 0.0570 0.0590 0.0670 0.0700
338.064834 0.0720 0.0790 0.0969 0.1099 0.1120
343.799610 0.1180 0.1260 0.1310 0.1370 0.1450
349.534385 0.1530 0.1600 0.1650 0.1869 0.1920
355.269161 0.2010 0.2090 0.2180 0.2270 0.2310
361.003936 0.2509 0.2540 0.2560 0.2719 0.2780
366.738712 0.2870 0.2960 0.2980 0.3100 0.3120
372.473487 0.3170 0.3170 0.3190 0.3220 0.3260
378.208262 0.3280 0.3380 0.3470 0.3500 0.3769
383.943038 0.3880 0.3970 0.4149 0.4279 0.4588
389.677813 0.4620 0.4690 0.4780 0.4850 0.4870
395.412589 0.5010 0.5110 0.5140 0.5349 0.5390
401.147364 0.5500 0.5590 0.5640 0.5780 0.5880
406.882139 0.5970 0.6040 0.6090 0.6120 0.6210
412.616915 0.6280 0.6390 0.6480 0.6550 0.6600
418.351690 0.6610 0.6690 0.6700 0.6720 0.6790
424.086466 0.6810 0.6860 0.6890 0.6920 0.6950
429.821241 0.6960 0.6970 0.6980 0.7010 0.7020
435.556016 0.7040 0.7050 0.7050 0.7060 0.7070
441.290792 0.7090 0.7100 0.7110 0.7130 0.7200
447.025567 0.7280 0.7300 0.7320 0.7380 0.7390
452.760343 0.7480 0.7500 0.7530 0.7600 0.7610
458.495118 0.7630 0.7690 0.7710 0.7720 0.7780
464.229894 0.7800 0.7820 0.7860 0.7920 0.7980
469.964669 0.8010 0.8040 0.8190 0.8200 0.8220
475.699444 0.8220 0.8230 0.8230 0.8250 0.8260
481.434220 0.8270 0.8280 0.8290 0.8340 0.8380
487.168995 0.8430 0.8440 0.8450 0.8470 0.8520
492.903771 0.8590 0.8600 0.8610 0.8670 0.8690
498.638546 0.8700 0.8710 0.8750 0.8790 0.8810
504.373321 0.8820 0.8840 0.8860 0.8870 0.8870
510.108097 0.8870 0.8860 0.8850 0.8840 0.8820
515.842872 0.8810 0.8790 0.8770 0.8750 0.8720
521.577648 0.8700 0.8630 0.8600 0.8510 0.8470
527.312423 0.8390 0.8280 0.8220 0.8150 0.7801
533.047198 0.7401 0.7091 0.6771 0.6452 0.6122
538.781974 0.5790 0.5210 0.4630 0.4051 0.3681
544.516749 0.3301 0.2901 0.2900 0.3866 0.4188
550.251525 0.4611 0.5710 0.7628 0.7900 0.8309
555.986300 0.8320 0.8350 0.8350 0.8350 0.8350
561.721076 0.8340 0.8310 0.8290 0.8280 0.8250
567.455851 0.8220 0.8200 0.8190 0.8170 0.8130
573.190626 0.8100 0.8060 0.8040 0.8030 0.7980
578.925402 0.7970 0.7950 0.7940 0.7940 0.7940
584.660177 0.7950 0.7960 0.7960 0.7960 0.7970
590.394953 0.7970 0.7970 0.7970 0.7980 0.7980
596.129728 0.7980 0.8000 0.8000 0.8000 0.8000
601.864503 0.8000 0.8010 0.8010 0.8010 0.8010
607.599279 0.8010 0.8020 0.8030 0.8030 0.8040
613.334054 0.8050 0.8060 0.8060 0.8090 0.8100
619.068830 0.8110 0.8120 0.8120 0.8120 0.8120
624.803605 0.8110 0.8110 0.8110 0.8100 0.8100
630.538380 0.8090 0.8090 0.8070 0.8070 0.8070
636.273156 0.8070 0.8070 0.8070 0.8070 0.8070
642.007931 0.8090 0.8090 0.8100 0.8100 0.8110
647.742707 0.8110 0.8120 0.8120 0.8130 0.8130
653.477482 0.8150 0.8190 0.8210 0.8220 0.8210
659.212258 0.8190 0.8180 0.8170 0.8140 0.8120
664.947033 0.8120 0.8110 0.8110 0.8100 0.8090
670.681808 0.8050 0.8020 0.8000 0.7900 0.7781
676.416584 0.7750 0.7700 0.7630 0.7520 0.7460
682.151359 0.7400 0.7300 0.7200 0.6941 0.6841
687.886135 0.6690 0.6450 0.6340 0.6210 0.6010
693.620910 0.5671 0.5481 0.5301 0.4961 0.4711
699.355685 0.4460 0.4040 0.3630 0.3320 0.3021
705.090461 0.2621 0.2221 0.1822 0.1432 0.1032
710.825236 0.0820 0.0610 0.0530 0.0430 0.0370
716.560012 0.0350 0.0340 0.0350 0.0390 0.0569
722.294787 0.0920 0.1140 0.1930 0.2719 0.2999
728.029562 0.3000 0.2821 0.2750 0.2650 0.2352
733.764338 0.1920 0.1860 0.1790 0.1210 0.1050
739.499113 0.0890 0.0531 0.0450 0.0311 0.0220
745.233889 0.0200 0.0190 0.0200 0.0220 0.0300
750.968664 0.0460 0.0610 0.0720 0.1098 0.1896
756.703440 0.2730 0.2790 0.3699 0.3800 0.4977
762.438215 0.5000 0.5927 0.6627 0.7018 0.7040
768.172990 0.7120 0.7390 0.7450 0.7620 0.7790
773.907766 0.7880 0.7960 0.7980 0.8010 0.8020
779.642541 0.8020 0.8010 0.8010 0.7980 0.7970
785.377317 0.7930 0.7900 0.7820 0.7790 0.7700
791.112092 0.7620 0.7530 0.7300 0.7170 0.7020
796.846867 0.6441 0.6221 0.6011 0.5452 0.5072
802.581643 0.4690 0.4310 0.3940 0.3381 0.2811
808.316418 0.2261 0.1692 0.1431 0.1062 0.1060
814.051194 0.1150 0.1290 0.1390 0.1530 0.4765
819.785969 0.5598 0.6019 0.6678 0.6750 0.7009
825.520745 0.7350 0.7440 0.7500 0.7520 0.7610
831.255520 0.7710 0.7770 0.7880 0.7999 0.8040
836.990295 0.8190 0.8250 0.8290 0.8310 0.8370
842.725071 0.8390 0.8420 0.8440 0.8460 0.8500
848.459846 0.8500 0.8520 0.8590 0.8600 0.8700
854.194622 0.8790 0.8900 0.8980 0.9010 0.9030
859.929397 0.9050 0.9090 0.9090 0.9110 0.9120
865.664172 0.9130 0.9140 0.9150 0.9170 0.9170
871.398948 0.9180 0.9180 0.9190 0.9190 0.9200
877.133723 0.9200 0.9210 0.9220 0.9230 0.9230
882.868499 0.9220 0.9210 0.9210 0.9200 0.9200
888.603274 0.9200 0.9200 0.9200 0.9200 0.9210
894.338049 0.9210 0.9210 0.9210 0.9210 0.9210
900.072825 0.9210 0.9210 0.9200 0.9200 0.9200
905.807600 0.9200 0.9190 0.9190 0.9150 0.9140
911.542376 0.9120 0.9070 0.9030 0.9000 0.8900
917.277151 0.8810 0.8790 0.8700 0.8630 0.8590
923.011927 0.8510 0.8420 0.8390 0.8251 0.8210
928.746702 0.8190 0.8150 0.8120 0.8070 0.8040
934.481477 0.7900 0.7810 0.7561 0.7460 0.7301
940.216253 0.7210 0.7110 0.6700 0.6460 0.6091
945.951028 0.5711 0.5341 0.4483 0.3623 0.2764
951.685804 0.2510 0.2260 0.1980 0.1710 0.0902
957.420579 0.0651 0.0391 0.0390 0.2272 0.2728
963.155354 0.5771 0.6620 0.7530 0.8249 0.8300
968.890130 0.8400 0.8510 0.8600 0.8680 0.8780
974.624905 0.8800 0.8890 0.8930 0.8970 0.8980
980.359681 0.9000 0.9020 0.9090 0.9090 0.9110
986.094456 0.9150 0.9170 0.9170 0.9180 0.9190
991.829231 0.9200 0.9210 0.9220 0.9220 0.9220
997.564007 0.9220 0.9220 0.9220 0.9220 0.9210
1003.298782 0.9200 0.9180 0.9170 0.9140 0.9130
1009.033558 0.9120 0.9100 0.9090 0.9090 0.9070
1014.768333 0.9050 0.9050 0.9040 0.9030 0.9030
1020.503109 0.9030 0.9020 0.9020 0.9010 0.9000
1026.237884 0.8980 0.8970 0.8920 0.8890 0.8810
1031.972659 0.8790 0.8680 0.8510 0.8350 0.8230
1037.707435 0.8120 0.8050 0.7920 0.7731 0.7521
1043.442210 0.7390 0.7260 0.6790 0.6320 0.5761
1049.176986 0.5181 0.4871 0.4870 0.5049 0.5249
1054.911761 0.5402 0.6441 0.7640 0.8510 0.8640
1060.646536 0.8710 0.8820 0.8920 0.9000 0.9020
1066.381312 0.9040 0.9100 0.9120 0.9140 0.9200
1072.116087 0.9220 0.9250 0.9260 0.9270 0.9280
1077.850863 0.9290 0.9300 0.9310 0.9310 0.9320
1083.585638 0.9320 0.9320 0.9320 0.9320 0.9340
1089.320413 0.9340 0.9350 0.9350 0.9360 0.9360
1095.055189 0.9360 0.9360 0.9360 0.9360 0.9360
1100.789964 0.9350 0.9350 0.9340 0.9310 0.9290
1106.524740 0.9290 0.9280 0.9280 0.9270 0.9260
1112.259515 0.9250 0.9250 0.9230 0.9220 0.9220
1117.994291 0.9210 0.9210 0.9210 0.9220 0.9230
1123.729066 0.9270 0.9290 0.9310 0.9320 0.9340
1129.463841 0.9340 0.9340 0.9310 0.9300 0.9300
1135.198617 0.9300 0.9310 0.9320 0.9360 0.9370
1140.933392 0.9370 0.9380 0.9380 0.9380 0.9380
1146.668168 0.9380 0.9380 0.9380 0.9380 0.9370
1152.402943 0.9370 0.9350 0.9320 0.9310 0.9300
1158.137718 0.9300 0.9300 0.9300 0.9290 0.9290
1163.872494 0.9290 0.9280 0.9260 0.9250 0.9230
1169.607269 0.9210 0.9180 0.9140 0.9120 0.9110
1175.342045 0.9110 0.9110 0.9100 0.9090 0.9060
1181.076820 0.9040 0.9010 0.8980 0.8890 0.8790
1186.811595 0.8640 0.8420 0.8221 0.8110 0.8000
1192.546371 0.7779 0.7110 0.6430 0.5930 0.5431
1198.281146 0.4931 0.4431 0.4071 0.4807 0.5796
1204.015922 0.5883 0.7511 0.8350 0.8650 0.8710
1209.750697 0.8800 0.8900 0.9000 0.9100 0.9140
1215.485473 0.9210 0.9220 0.9230 0.9250 0.9280
1221.220248 0.9290 0.9300 0.9310 0.9310 0.9320
1226.955023 0.9320 0.9320 0.9320 0.9320 0.9310
1232.689799 0.9310 0.9310 0.9300 0.9290 0.9280
1238.424574 0.9260 0.9250 0.9230 0.9230 0.9210
1244.159350 0.9200 0.9180 0.9110 0.9090 0.9060
1249.894125 0.9040 0.9020 0.9000 0.8950 0.8870
1255.628900 0.8840 0.8820 0.8810 0.8810 0.8800
1261.363676 0.8800 0.8800 0.8790 0.8770 0.8760
1267.098451 0.8690 0.8600 0.8540 0.8391 0.8280
1272.833227 0.8149 0.7300 0.6440 0.6140 0.5840
1278.568002 0.6319 0.6809 0.7059 0.7558 0.7809
1284.302777 0.8390 0.8510 0.8640 0.8680 0.8700
1290.037553 0.8750 0.8860 0.8890 0.9099 0.9130
1295.772328 0.9260 0.9300 0.9310 0.9320 0.9360
1301.507104 0.9370 0.9380 0.9390 0.9390 0.9400
1307.241879 0.9400 0.9400 0.9420 0.9420 0.9420
1312.976655 0.9430 0.9430 0.9450 0.9450 0.9450
1318.711430 0.9450 0.9460 0.9470 0.9480 0.9480
1324.446205 0.9480 0.9500 0.9500 0.9500 0.9500
1330.180981 0.9500 0.9500 0.9500 0.9500 0.9500
1335.915756 0.9500 0.9500 0.9500 0.9500 0.9500
1341.650532 0.9500 0.9480 0.9480 0.9470 0.9470
1347.385307 0.9460 0.9460 0.9460 0.9450 0.9450
1353.120082 0.9450 0.9440 0.9440 0.9430 0.9430
1358.854858 0.9430 0.9430 0.9430 0.9430 0.9430
1364.589633 0.9430 0.9430 0.9430 0.9430 0.9430
1370.324409 0.9420 0.9420 0.9400 0.9390 0.9340
1376.059184 0.9190 0.9180 0.9190 0.9220 0.9290
1381.793959 0.9310 0.9340 0.9350 0.9350 0.9340
1387.528735 0.9320 0.9310 0.9300 0.9280 0.9270
1393.263510 0.9260 0.9250 0.9220 0.9190 0.9150
1398.998286 0.9120 0.9100 0.9070 0.9050 0.9000
1404.733061 0.8900 0.8760 0.8560 0.8400 0.8151
1410.467837 0.7900 0.7590 0.7260 0.6470 0.5691
1416.202612 0.4891 0.4421 0.3931 0.5724 0.7383
1421.937387 0.7900 0.8250 0.8440 0.8600 0.8700
1427.672163 0.8720 0.8720 0.8730 0.8750 0.8780
1433.406938 0.8800 0.8890 0.8920 0.8960 0.9100
1439.141714 0.9120 0.9140 0.9190 0.9220 0.9260
1444.876489 0.9290 0.9300 0.9300 0.9300 0.9310
1450.611264 0.9320 0.9340 0.9340 0.9360 0.9370
1456.346040 0.9370 0.9380 0.9380 0.9380 0.9380
1462.080815 0.9380 0.9380 0.9390 0.9390 0.9400
1467.815591 0.9400 0.9420 0.9430 0.9440 0.9440
1473.550366 0.9440 0.9450 0.9450 0.9450 0.9450
1479.285141 0.9440 0.9440 0.9440 0.9430 0.9430
1485.019917 0.9430 0.9430 0.9430 0.9430 0.9430
1490.754692 0.9440 0.9440 0.9440 0.9440 0.9430
1496.489468 0.9430 0.9400 0.9400 0.9380 0.9380
1502.224243 0.9380 0.9390 0.9400 0.9400 0.9420
1507.959019 0.9420 0.9420 0.9420 0.9400 0.9400
1513.693794 0.9390 0.9380 0.9370 0.9370 0.9360
1519.428569 0.9360 0.9360 0.9360 0.9350 0.9360
1525.163345 0.9360 0.9370 0.9370 0.9370 0.9370
1530.898120 0.9360 0.9350 0.9320 0.9340 0.9360
1536.632896 0.9390 0.9400 0.9420 0.9430 0.9430
1542.367671 0.9440 0.9440 0.9440 0.9430 0.9430
1548.102446 0.9420 0.9400 0.9400 0.9370 0.9350
1553.837222 0.9370 0.9400 0.9450 0.9460 0.9460
1559.571997 0.9450 0.9450 0.9450 0.9460 0.9480
1565.306773 0.9480 0.9470 0.9470 0.9460 0.9460
1571.041548 0.9450 0.9450 0.9450 0.9460 0.9470
1576.776323 0.9470 0.9470 0.9470 0.9470 0.9470
1582.511099 0.9460 0.9450 0.9450 0.9440 0.9440
1588.245874 0.9440 0.9430 0.9430 0.9420 0.9420
1593.980650 0.9400 0.9400 0.9400 0.9400 0.9400
1599.715425 0.9420 0.9430 0.9430 0.9430 0.9430
1605.450201 0.9430 0.9420 0.9420 0.9400 0.9400
1611.184976 0.9400 0.9400 0.9400 0.9400 0.9390
1616.919751 0.9380 0.9380 0.9380 0.9390 0.9400
1622.654527 0.9420 0.9420 0.9420 0.9400 0.9370
1628.389302 0.9370 0.9380 0.9380 0.9420 0.9430
1634.124078 0.9430 0.9420 0.9400 0.9400 0.9400
1639.858853 0.9400 0.9400 0.9420 0.9420 0.9400
1645.593628 0.9390 0.9370 0.9370 0.9380 0.9390
1651.328404 0.9400 0.9420 0.9420 0.9420 0.9400
1657.063179 0.9400 0.9390 0.9390 0.9390 0.9390
1662.797955 0.9380 0.9380 0.9380 0.9380 0.9390
1668.532730 0.9390 0.9400 0.9400 0.9430 0.9440
1674.267505 0.9440 0.9420 0.9390 0.9380 0.9390
1680.002281 0.9420 0.9430 0.9440 0.9450 0.9470
1685.737056 0.9480 0.9480 0.9450 0.9440 0.9430
1691.471832 0.9420 0.9420 0.9420 0.9430 0.9430
1697.206607 0.9430 0.9430 0.9430 0.9440 0.9450
1702.941383 0.9460 0.9460 0.9450 0.9440 0.9440
1708.676158 0.9430 0.9420 0.9400 0.9420 0.9420
1714.410933 0.9430 0.9440 0.9440 0.9440 0.9440
1720.145709 0.9430 0.9430 0.9430 0.9420 0.9400
1725.880484 0.9400 0.9400 0.9390 0.9390 0.9380
1731.615260 0.9380 0.9370 0.9370 0.9360 0.9340
1737.350035 0.9340 0.9320 0.9310 0.9310 0.9300
1743.084810 0.9300 0.9270 0.9260 0.9250 0.9250
1748.819586 0.9230 0.9230 0.9230 0.9250 0.9250
1754.554361 0.9260 0.9260 0.9280 0.9280 0.9290
1760.289137 0.9290 0.9290 0.9290 0.9290 0.9290
1766.023912 0.9290 0.9300 0.9300 0.9300 0.9310
1771.758687 0.9320 0.9320 0.9320 0.9340 0.9350
1777.493463 0.9350 0.9350 0.9360 0.9360 0.9360
1783.228238 0.9370 0.9370 0.9360 0.9360 0.9360
1788.963014 0.9360 0.9360 0.9360 0.9360 0.9360
1794.697789 0.9360 0.9350 0.9350 0.9350 0.9350
1800.432565 0.9350 0.9340 0.9340 0.9340 0.9340
1806.167340 0.9340 0.9320 0.9320 0.9320 0.9320
1811.902115 0.9310 0.9310 0.9310 0.9310 0.9310
1817.636891 0.9300 0.9290 0.9290 0.9290 0.9290
1823.371666 0.9290 0.9290 0.9290 0.9290 0.9290
1829.106442 0.9290 0.9290 0.9290 0.9290 0.9290
1834.841217 0.9290 0.9290 0.9300 0.9300 0.9300
1840.575992 0.9300 0.9300 0.9300 0.9300 0.9300
1846.310768 0.9300 0.9300 0.9300 0.9300 0.9300
1852.045543 0.9300 0.9300 0.9300 0.9300 0.9300
1857.780319 0.9300 0.9300 0.9300 0.9300 0.9300
1863.515094 0.9300 0.9300 0.9300 0.9300 0.9300
1869.249869 0.9300 0.9290 0.9290 0.9290 0.9290
1874.984645 0.9290 0.9290 0.9290 0.9290 0.9290
1880.719420 0.9290 0.9290 0.9290 0.9290 0.9290
1886.454196 0.9290 0.9290 0.9290 0.9290 0.9290
1892.188971 0.9290 0.9290 0.9290 0.9290 0.9290
1897.923747 0.9290 0.9290 0.9290 0.9280 0.9280
1903.658522 0.9280 0.9280 0.9270 0.9260 0.9260
1909.393297 0.9250 0.9250 0.9230 0.9230 0.9220
1915.128073 0.9220 0.9220 0.9220 0.9220 0.9220
1920.862848 0.9220 0.9220 0.9220 0.9220 0.9220
1926.597624 0.9220 0.9220 0.9220 0.9220 0.9220
1932.332399 0.9220 0.9220 0.9220 0.9220 0.9220
1938.067174 0.9220 0.9220 0.9220 0.9220 0.9220
1943.801950 0.9220 0.9220 0.9220 0.9220 0.9220
1949.536725 0.9220 0.9220 0.9230 0.9230 0.9230
1955.271501 0.9230 0.9230 0.9230 0.9230 0.9230
1961.006276 0.9250 0.9250 0.9250 0.9250 0.9250
1966.741052 0.9250 0.9250 0.9250 0.9250 0.9260
1972.475827 0.9260 0.9270 0.9270 0.9270 0.9280
1978.210602 0.9280 0.9290 0.9290 0.9290 0.9300
1983.945378 0.9300 0.9310 0.9310 0.9310 0.9320
1989.680153 0.9320 0.9340 0.9340 0.9340 0.9350
1995.414929 0.9350 0.9350 0.9360 0.9360 0.9360
2001.149704 0.9360 0.9360 0.9365 0.9370 0.9370
2006.884479 0.9370 0.9370 0.9370 0.9370 0.9370
2012.619255 0.9375 0.9380 0.9380 0.9380 0.9380
2018.354030 0.9380 0.9380 0.9380 0.9380 0.9380
2024.088806 0.9385 0.9390 0.9390 0.9390 0.9390
2029.823581 0.9390 0.9390 0.9390 0.9395 0.9400
2035.558356 0.9400 0.9400 0.9400 0.9400 0.9400
2041.293132 0.9400 0.9400 0.9400 0.9400 0.9400
2047.027907 0.9400 0.9400 0.9400 0.9400 0.9400
2052.762683 0.9400 0.9400 0.9400 0.9400 0.9400
2058.497458 0.9400 0.9400 0.9395 0.9390 0.9390
2064.232234 0.9390 0.9390 0.9390 0.9385 0.9380
2069.967009 0.9380 0.9380 0.9371 0.9361 0.9355
2075.701784 0.9350 0.9345 0.9340 0.9322 0.9302
2081.436560 0.9296 0.9291 0.9286 0.9281 0.9276
2087.171335 0.9271 0.9270 0.9270 0.9274 0.9279
2092.906111 0.9284 0.9289 0.9303 0.9318 0.9329
2098.640886 0.9339 0.9349 0.9359 0.9360 0.9360
2104.375661 0.9364 0.9369 0.9374 0.9379 0.9380
2110.110437 0.9380 0.9376 0.9371 0.9366 0.9361
2115.845212 0.9360 0.9360 0.9351 0.9341 0.9327
2121.579988 0.9312 0.9306 0.9301 0.9296 0.9291
2127.314763 0.9290 0.9290 0.9290 0.9290 0.9290
2133.049538 0.9290 0.9294 0.9299 0.9317 0.9337
2138.784314 0.9344 0.9349 0.9354 0.9359 0.9360
2144.519089 0.9360 0.9364 0.9369 0.9370 0.9370
2150.253865 0.9366 0.9361 0.9360 0.9360 0.9360
2155.988640 0.9360 0.9360 0.9360 0.9364 0.9369
2161.723416 0.9370 0.9370 0.9374 0.9379 0.9380
2167.458191 0.9380 0.9384 0.9389 0.9390 0.9390
2173.192966 0.9390 0.9390 0.9390 0.9390 0.9390
2178.927742 0.9390 0.9394 0.9399 0.9400 0.9400
2184.662517 0.9400 0.9400 0.9400 0.9400 0.9400
2190.397293 0.9400 0.9400 0.9400 0.9400 0.9400
2196.132068 0.9400 0.9400 0.9400 0.9400 0.9400
2201.866843 0.9400 0.9400 0.9400 0.9400 0.9400
2207.601619 0.9400 0.9400 0.9400 0.9400 0.9400
2213.336394 0.9400 0.9396 0.9391 0.9390 0.9390
2219.071170 0.9390 0.9390 0.9386 0.9381 0.9380
2224.805945 0.9380 0.9376 0.9371 0.9366 0.9361
2230.540720 0.9360 0.9360 0.9356 0.9351 0.9350
2236.275496 0.9350 0.9350 0.9350 0.9350 0.9350
2242.010271 0.9353 0.9358 0.9363 0.9368 0.9370
2247.745047 0.9370 0.9370 0.9370 0.9373 0.9378
2253.479822 0.9380 0.9380 0.9383 0.9388 0.9390
2259.214598 0.9390 0.9390 0.9390 0.9390 0.9390
2264.949373 0.9393 0.9398 0.9400 0.9400 0.9400
2270.684148 0.9400 0.9400 0.9400 0.9400 0.9400
2276.418924 0.9400 0.9400 0.9400 0.9400 0.9400
2282.153699 0.9400 0.9400 0.9400 0.9400 0.9400
2287.888475 0.9400 0.9400 0.9400 0.9400 0.9397
2293.623250 0.9392 0.9390 0.9390 0.9390 0.9390
2299.358025 0.9390 0.9390 0.9390 0.9390 0.9390
2305.092801 0.9390 0.9390 0.9390 0.9390 0.9390
2310.827576 0.9390 0.9390 0.9384 0.9374 0.9370
2316.562352 0.9370 0.9367 0.9362 0.9360 0.9360
2322.297127 0.9357 0.9352 0.9347 0.9342 0.9340
2328.031902 0.9340 0.9340 0.9340 0.9334 0.9324
2333.766678 0.9317 0.9312 0.9310 0.9310 0.9307
2339.501453 0.9302 0.9300 0.9300 0.9294 0.9284
2345.236229 0.9257 0.9217 0.9185 0.9161 0.9141
2350.971004 0.9126 0.9114 0.9104 0.9097 0.9092
2356.705780 0.9090 0.9090 0.9084 0.9074 0.9078
2362.440555 0.9093 0.9108 0.9123 0.9152 0.9192
2368.175330 0.9221 0.9241 0.9256 0.9265 0.9278
2373.910106 0.9293 0.9305 0.9315 0.9325 0.9335
2379.644881 0.9343 0.9348 0.9350 0.9350 0.9347
2385.379657 0.9342 0.9340 0.9340 0.9335 0.9325
2391.114432 0.9320 0.9320 0.9320 0.9320 0.9325
2396.849207 0.9335 0.9340 0.9340 0.9343 0.9348
2402.583983 0.9353 0.9358 0.9360 0.9360 0.9365
2408.318758 0.9375 0.9382 0.9387 0.9390 0.9390
2414.053534 0.9390 0.9390 0.9390 0.9390 0.9390
2419.788309 0.9390 0.9388 0.9383 0.9380 0.9380
2425.523084 0.9380 0.9380 0.9380 0.9380 0.9380
2431.257860 0.9380 0.9378 0.9373 0.9368 0.9363
2436.992635 0.9360 0.9360 0.9360 0.9360 0.9360
2442.727411 0.9360 0.9358 0.9353 0.9350 0.9350
2448.462186 0.9348 0.9343 0.9336 0.9326 0.9320
2454.196962 0.9320 0.9316 0.9306 0.9296 0.9286
2459.931737 0.9267 0.9237 0.9213 0.9198 0.9188
2465.666512 0.9183 0.9182 0.9187 0.9192 0.9197
2471.401288 0.9206 0.9221 0.9236 0.9251 0.9264
2477.136063 0.9274 0.9284 0.9294 0.9302 0.9307
2482.870839 0.9312 0.9317 0.9320 0.9320 0.9324
2488.605614 0.9334 0.9344 0.9354 0.9360 0.9360
2494.340389 0.9362 0.9367 0.9370 0.9370 0.9370
2500.075165 0.9370 0.9370 0.9370 0.9372 0.9377
2505.809940 0.9380 0.9380 0.9380 0.9380 0.9378
2511.544716 0.9373 0.9370 0.9370 0.9370 0.9370
2517.279491 0.9370 0.9370 0.9370 0.9370 0.9370
2523.014266 0.9370 0.9368 0.9363 0.9360 0.9360
2528.749042 0.9360 0.9360 0.9358 0.9353 0.9345
2534.483817 0.9330 0.9318 0.9313 0.9308 0.9303
2540.218593 0.9295 0.9280 0.9268 0.9263 0.9255
2545.953368 0.9240 0.9230 0.9230 0.9233 0.9243
2551.688144 0.9250 0.9250 0.9253 0.9263 0.9275
2557.422919 0.9290 0.9302 0.9307 0.9312 0.9317
2563.157694 0.9320 0.9320 0.9323 0.9333 0.9340
2568.892470 0.9340 0.9341 0.9346 0.9350 0.9350
2574.627245 0.9350 0.9350 0.9350 0.9350 0.9350
2580.362021 0.9350 0.9350 0.9350 0.9351 0.9356
2586.096796 0.9360 0.9360 0.9360 0.9360 0.9360
2591.831571 0.9360 0.9360 0.9360 0.9360 0.9360
2597.566347 0.9359 0.9354 0.9350 0.9350 0.9349
2603.301122 0.9344 0.9340 0.9340 0.9336 0.9321
2609.035898 0.9309 0.9304 0.9300 0.9300 0.9301
2614.770673 0.9306 0.9310 0.9310 0.9311 0.9316
2620.505448 0.9323 0.9333 0.9340 0.9340 0.9340
2626.240224 0.9340 0.9341 0.9346 0.9350 0.9350
2631.974999 0.9350 0.9350 0.9350 0.9350 0.9350
2637.709775 0.9350 0.9350 0.9350 0.9350 0.9350
2643.444550 0.9350 0.9350 0.9350 0.9350 0.9350
2649.179326 0.9350 0.9350 0.9350 0.9350 0.9350
2654.914101 0.9350 0.9350 0.9350 0.9350 0.9350
2660.648876 0.9350 0.9350 0.9350 0.9349 0.9344
2666.383652 0.9340 0.9340 0.9340 0.9340 0.9338
2672.118427 0.9328 0.9320 0.9320 0.9320 0.9320
2677.853203 0.9320 0.9320 0.9320 0.9320 0.9319
2683.587978 0.9314 0.9309 0.9304 0.9299 0.9294
2689.322753 0.9284 0.9249 0.9220 0.9220 0.9222
2695.057529 0.9237 0.9252 0.9262 0.9271 0.9276
2700.792304 0.9281 0.9291 0.9300 0.9300 0.9301
2706.527080 0.9306 0.9310 0.9310 0.9310 0.9310
2712.261855 0.9311 0.9316 0.9320 0.9320 0.9320
2717.996630 0.9320 0.9320 0.9320 0.9320 0.9320
2723.731406 0.9320 0.9320 0.9320 0.9320 0.9320
2729.466181 0.9320 0.9320 0.9320 0.9320 0.9320
2735.200957 0.9320 0.9320 0.9320 0.9320 0.9320
2740.935732 0.9320 0.9320 0.9320 0.9320 0.9320
2746.670508 0.9320 0.9315 0.9310 0.9310 0.9310
2752.405283 0.9305 0.9300 0.9300 0.9300 0.9300
2758.140058 0.9300 0.9300 0.9300 0.9300 0.9300
2763.874834 0.9300 0.9300 0.9305 0.9310 0.9310
2769.609609 0.9310 0.9310 0.9310 0.9310 0.9310
2775.344385 0.9305 0.9300 0.9300 0.9300 0.9300
2781.079160 0.9300 0.9300 0.9300 0.9300 0.9300
2786.813935 0.9300 0.9300 0.9300 0.9300 0.9295
2792.548711 0.9290 0.9290 0.9290 0.9290 0.9290
2798.283486 0.9285 0.9280 0.9280 0.9280 0.9270
2804.018262 0.9260 0.9255 0.9250 0.9250 0.9250
2809.753037 0.9240 0.9229 0.9164 0.9100 0.9085
2815.487812 0.9070 0.9055 0.9040 0.9000 0.8960
2821.222588 0.9030 0.9099 0.9110 0.9120 0.9130
2826.957363 0.9140 0.9175 0.9210 0.9215 0.9220
2832.692139 0.9225 0.9230 0.9230 0.9230 0.9230
2838.426914 0.9230 0.9230 0.9230 0.9230 0.9230
2844.161690 0.9230 0.9230 0.9230 0.9230 0.9230
2849.896465 0.9230 0.9240 0.9250 0.9250 0.9250
2855.631240 0.9250 0.9250 0.9250 0.9250 0.9250
2861.366016 0.9250 0.9250 0.9250 0.9250 0.9250
2867.100791 0.9250 0.9250 0.9250 0.9250 0.9250
2872.835567 0.9250 0.9250 0.9250 0.9250 0.9250
2878.570342 0.9241 0.9231 0.9230 0.9230 0.9230
2884.305117 0.9230 0.9230 0.9230 0.9225 0.9220
2890.039893 0.9220 0.9220 0.9215 0.9210 0.9210
2895.774668 0.9210 0.9210 0.9210 0.9210 0.9210
2901.509444 0.9205 0.9200 0.9200 0.9200 0.9200
2907.244219 0.9200 0.9196 0.9191 0.9190 0.9190
2912.978994 0.9181 0.9171 0.9161 0.9151 0.9146
2918.713770 0.9141 0.9136 0.9131 0.9126 0.9121
2924.448545 0.9116 0.9111 0.9106 0.9101 0.9096
2930.183321 0.9091 0.9090 0.9090 0.9081 0.9071
2935.918096 0.9061 0.9051 0.9033 0.9013 0.8980
2941.652872 0.8945 0.8918 0.8893 0.8851 0.8806
2947.387647 0.8719 0.8624 0.8538 0.8453 0.8368
2953.122422 0.8284 0.8199 0.8114 0.7792 0.7423
2958.857198 0.7049 0.6675 0.6610 0.6610 0.6887
2964.591973 0.7225 0.7309 0.7344 0.7699 0.8118
2970.326749 0.8277 0.8381 0.8478 0.8573 0.8655
2976.061524 0.8735 0.8762 0.8777 0.8784 0.8789
2981.796299 0.8794 0.8799 0.8832 0.8872 0.8884
2987.531075 0.8889 0.8902 0.8917 0.8920 0.8920
2993.265850 0.8920 0.8920 0.8904 0.8884 0.8864
2999.000626 0.8844 0.8813 0.8778 0.8708 0.8628
3004.735401 0.8568 0.8513 0.8427 0.8332 0.8237
3010.470176 0.8141 0.7902 0.7622 0.7560 0.7560
3016.204952 0.7614 0.7684 0.7765 0.7850 0.7942
3021.939727 0.8037 0.8147 0.8262 0.8331 0.8386
3027.674503 0.8445 0.8505 0.8550 0.8590 0.8615
3033.409278 0.8635 0.8670 0.8710 0.8746 0.8781
3039.144054 0.8797 0.8807 0.8825 0.8845 0.8861
3044.878829 0.8876 0.8887 0.8897 0.8907 0.8917
3050.613604 0.8927 0.8937 0.8951 0.8966 0.8974
3056.348380 0.8979 0.8987 0.8997 0.9004 0.9009
3062.083155 0.9010 0.9010 0.9014 0.9019 0.9020
3067.817931 0.9020 0.9020 0.9020 0.9020 0.9020
3073.552706 0.9023 0.9028 0.9030 0.9030 0.9033
3079.287481 0.9038 0.9043 0.9048 0.9050 0.9050
3085.022257 0.9050 0.9050 0.9053 0.9058 0.9063
3090.757032 0.9068 0.9070 0.9070 0.9077 0.9087
3096.491808 0.9090 0.9090 0.9090 0.9090 0.9090
3102.226583 0.9090 0.9090 0.9090 0.9090 0.9090
3107.961358 0.9090 0.9090 0.9090 0.9090 0.9090
3113.696134 0.9090 0.9090 0.9090 0.9090 0.9090
3119.430909 0.9090 0.9090 0.9090 0.9090 0.9090
3125.165685 0.9090 0.9090 0.9090 0.9090 0.9090
3130.900460 0.9090 0.9090 0.9090 0.9090 0.9090
3136.635236 0.9090 0.9090 0.9090 0.9090 0.9090
3142.370011 0.9090 0.9090 0.9090 0.9090 0.9090
3148.104786 0.9090 0.9084 0.9074 0.9070 0.9070
3153.839562 0.9070 0.9070 0.9076 0.9086 0.9090
3159.574337 0.9090 0.9090 0.9090 0.9090 0.9090
3165.309113 0.9090 0.9090 0.9090 0.9090 0.9090
3171.043888 0.9090 0.9090 0.9090 0.9090 0.9090
3176.778663 0.9090 0.9090 0.9084 0.9074 0.9070
3182.513439 0.9070 0.9070 0.9070 0.9070 0.9070
3188.248214 0.9067 0.9062 0.9060 0.9060 0.9060
3193.982990 0.9060 0.9060 0.9060 0.9057 0.9052
3199.717765 0.9050 0.9050 0.9050 0.9050 0.9050
3205.452541 0.9050 0.9050 0.9050 0.9047 0.9042
3211.187316 0.9040 0.9040 0.9040 0.9040 0.9040
3216.922091 0.9040 0.9040 0.9040 0.9040 0.9040
3222.656867 0.9040 0.9040 0.9040 0.9040 0.9040
3228.391642 0.9040 0.9040 0.9040 0.9037 0.9033
3234.126418 0.9030 0.9030 0.9030 0.9030 0.9030
3239.861193 0.9030 0.9027 0.9022 0.9020 0.9020
3245.595968 0.9020 0.9020 0.9020 0.9020 0.9018
3251.330744 0.9013 0.9010 0.9010 0.9010 0.9010
3257.065519 0.9010 0.9010 0.9008 0.9003 0.9000
3262.800295 0.9000 0.9000 0.9000 0.9000 0.9000
3268.535070 0.9000 0.9000 0.9000 0.9000 0.9000
3274.269845 0.9000 0.9000 0.9000 0.9000 0.9000
3280.004621 0.9000 0.9000 0.9000 0.9000 0.8996
3285.739396 0.8986 0.8980 0.8980 0.8980 0.8980
3291.474172 0.8978 0.8973 0.8970 0.8970 0.8970
3297.208947 0.8970 0.8970 0.8970 0.8968 0.8963
3302.943723 0.8960 0.8960 0.8960 0.8960 0.8960
3308.678498 0.8960 0.8960 0.8960 0.8960 0.8960
3314.413273 0.8958 0.8953 0.8950 0.8950 0.8950
3320.148049 0.8950 0.8948 0.8943 0.8940 0.8940
3325.882824 0.8938 0.8933 0.8930 0.8930 0.8928
3331.617600 0.8923 0.8920 0.8920 0.8916 0.8906
3337.352375 0.8900 0.8900 0.8900 0.8900 0.8898
3343.087150 0.8893 0.8890 0.8890 0.8890 0.8890
3348.821926 0.8890 0.8890 0.8890 0.8890 0.8890
3354.556701 0.8890 0.8890 0.8890 0.8890 0.8890
3360.291477 0.8892 0.8897 0.8900 0.8900 0.8900
3366.026252 0.8900 0.8900 0.8900 0.8900 0.8900
3371.761027 0.8900 0.8900 0.8900 0.8900 0.8900
3377.495803 0.8900 0.8900 0.8900 0.8900 0.8900
3383.230578 0.8900 0.8900 0.8900 0.8900 0.8900
3388.965354 0.8900 0.8900 0.8900 0.8900 0.8900
3394.700129 0.8900 0.8900 0.8900 0.8900 0.8900
3400.434905 0.8900 0.8900 0.8900 0.8900 0.8900
3406.169680 0.8900 0.8900 0.8900 0.8900 0.8900
3411.904455 0.8900 0.8900 0.8900 0.8900 0.8900
3417.639231 0.8900 0.8900 0.8900 0.8900 0.8900
3423.374006 0.8900 0.8900 0.8900 0.8900 0.8900
3429.108782 0.8899 0.8894 0.8890 0.8890 0.8890
3434.843557 0.8890 0.8891 0.8896 0.8900 0.8900
3440.578332 0.8900 0.8900 0.8900 0.8900 0.8900
3446.313108 0.8900 0.8900 0.8900 0.8900 0.8900
3452.047883 0.8902 0.8912 0.8920 0.8920 0.8920
3457.782659 0.8920 0.8920 0.8920 0.8920 0.8920
3463.517434 0.8920 0.8920 0.8920 0.8920 0.8920
3469.252209 0.8920 0.8921 0.8926 0.8930 0.8930
3474.986985 0.8930 0.8930 0.8930 0.8930 0.8931
3480.721760 0.8936 0.8941 0.8946 0.8950 0.8950
3486.456536 0.8950 0.8950 0.8950 0.8950 0.8950
3492.191311 0.8950 0.8950 0.8950 0.8950 0.8950
3497.926087 0.8950 0.8950 0.8950 0.8950 0.8951
3503.660862 0.8956 0.8960 0.8960 0.8960 0.8960
3509.395637 0.8960 0.8960 0.8961 0.8966 0.8971
3515.130413 0.8976 0.8980 0.8980 0.8980 0.8980
3520.865188 0.8980 0.8980 0.8980 0.8980 0.8982
3526.599964 0.8991 0.9000 0.9000 0.9000 0.9000
3532.334739 0.9000 0.9000 0.9000 0.9000 0.9000
3538.069514 0.9000 0.9000 0.9000 0.9000 0.9000
3543.804290 0.9000 0.9000 0.9000 0.9000 0.9000
3549.539065 0.9000 0.9000 0.9000 0.9000 0.9000
3555.273841 0.9000 0.9000 0.9000 0.9000 0.9000
3561.008616 0.9000 0.9000 0.9000 0.9000 0.9000
3566.743391 0.9001 0.9006 0.9010 0.9010 0.9010
3572.478167 0.9010 0.9010 0.9010 0.9010 0.9010
3578.212942 0.9010 0.9010 0.9010 0.9015 0.9020
3583.947718 0.9020 0.9020 0.9020 0.9020 0.9020
3589.682493 0.9020 0.9020 0.9020 0.9020 0.9020
3595.417269 0.9020 0.9020 0.9020 0.9020 0.9025
3601.152044 0.9030 0.9030 0.9030 0.9030 0.9030
3606.886819 0.9030 0.9030 0.9030 0.9030 0.9030
3612.621595 0.9030 0.9030 0.9030 0.9035 0.9040
3618.356370 0.9040 0.9040 0.9040 0.9040 0.9040
3624.091146 0.9040 0.9040 0.9040 0.9040 0.9040
3629.825921 0.9045 0.9050 0.9055 0.9060 0.9060
3635.560696 0.9060 0.9060 0.9060 0.9060 0.9060
3641.295472 0.9065 0.9070 0.9070 0.9070 0.9070
3647.030247 0.9070 0.9070 0.9070 0.9070 0.9070
3652.765023 0.9070 0.9070 0.9070 0.9070 0.9070
3658.499798 0.9070 0.9070 0.9070 0.9070 0.9070
3664.234573 0.9070 0.9070 0.9070 0.9070 0.9070
3669.969349 0.9070 0.9070 0.9070 0.9070 0.9070
3675.704124 0.9065 0.9060 0.9060 0.9060 0.9060
3681.438900 0.9060 0.9060 0.9060 0.9060 0.9060
3687.173675 0.9060 0.9060 0.9060 0.9060 0.9060
3692.908451 0.9060 0.9060 0.9060 0.9060 0.9060
3698.643226 0.9055 0.9050 0.9050 0.9050 0.9050
3704.378001 0.9050 0.9050 0.9050 0.9050 0.9050
3710.112777 0.9050 0.9050 0.9050 0.9050 0.9050
3715.847552 0.9050 0.9050 0.9050 0.9050 0.9050
3721.582328 0.9055 0.9060 0.9060 0.9060 0.9060
3727.317103 0.9060 0.9060 0.9060 0.9060 0.9060
3733.051878 0.9055 0.9051 0.9050 0.9050 0.9050
3738.786654 0.9050 0.9050 0.9050 0.9046 0.9041
3744.521429 0.9040 0.9040 0.9040 0.9040 0.9036
3750.256205 0.9031 0.9030 0.9030 0.9030 0.9030
3755.990980 0.9026 0.9021 0.9020 0.9020 0.9016
3761.725755 0.9011 0.9010 0.9010 0.9010 0.9010
3767.460531 0.9006 0.9001 0.9000 0.9000 0.9000
3773.195306 0.9000 0.9000 0.9000 0.9000 0.9000
3778.930082 0.9004 0.9009 0.9010 0.9010 0.9014
3784.664857 0.9019 0.9024 0.9029 0.9034 0.9039
3790.399633 0.9044 0.9049 0.9050 0.9050 0.9054
3796.134408 0.9059 0.9060 0.9060 0.9064 0.9069
3801.869183 0.9070 0.9070 0.9070 0.9070 0.9070
3807.603959 0.9070 0.9070 0.9070 0.9070 0.9070
3813.338734 0.9066 0.9061 0.9060 0.9060 0.9060
3819.073510 0.9060 0.9056 0.9051 0.9050 0.9050
3824.808285 0.9046 0.9041 0.9040 0.9040 0.9040
3830.543060 0.9040 0.9036 0.9031 0.9030 0.9030
3836.277836 0.9030 0.9030 0.9030 0.9030 0.9030
3842.012611 0.9030 0.9026 0.9021 0.9020 0.9020
3847.747387 0.9020 0.9020 0.9020 0.9020 0.9020
3853.482162 0.9020 0.9020 0.9020 0.9024 0.9029
3859.216937 0.9030 0.9030 0.9034 0.9039 0.9040
3864.951713 0.9040 0.9040 0.9040 0.9040 0.9040
3870.686488 0.9040 0.9040 0.9040 0.9040 0.9040
3876.421264 0.9040 0.9040 0.9040 0.9040 0.9040
3882.156039 0.9040 0.9040 0.9040 0.9040 0.9040
3887.890815 0.9040 0.9036 0.9031 0.9030 0.9030
3893.625590 0.9030 0.9030 0.9030 0.9030 0.9027
3899.360365 0.9022 0.9020 0.9020 0.9020 0.9020
3905.095141 0.9020 0.9020 0.9016 0.9012 0.9010
3910.829916 0.9010 0.9007 0.9002 0.9000 0.9000
3916.564692 0.9000 0.9000 0.9003 0.9008 0.9010
3922.299467 0.9010 0.9010 0.9010 0.9013 0.9018
3928.034242 0.9020 0.9020 0.9020 0.9020 0.9020
3933.769018 0.9020 0.9020 0.9020 0.9020 0.9020
3939.503793 0.9020 0.9020 0.9017 0.9012 0.9010
3945.238569 0.9010 0.9010 0.9010 0.9007 0.9002
3950.973344 0.9000 0.9000 0.9000 0.9000 0.8994
3956.708119 0.8984 0.8980 0.8980 0.8974 0.8964
3962.442895 0.8954 0.8944 0.8934 0.8924 0.8914
3968.177670 0.8904 0.8897 0.8892 0.8890 0.8890
3973.912446 0.8893 0.8898 0.8909 0.8924 0.8933
3979.647221 0.8938 0.8949 0.8964 0.8970 0.8970
3985.381997 0.8973 0.8978 0.8986 0.8996 0.9000
3991.116772 0.9000 0.9003 0.9008 0.9010 0.9010
3996.851547 0.9010 0.9010 0.9010 0.9010 0.8998
4002.586323 0.8978 0.8970 0.8970 0.8973 0.8978
4008.321098 0.8986 0.8996 0.9000 0.9000 0.9003
4014.055874 0.9008 0.9010 0.9010 0.9010 0.9010
4019.790649 0.9010 0.9010
##END=
