##TITLE=DIMETHYL SULFOXIDE
##JCAMP-DX=4.24
##DATA TYPE=INFRARED SPECTRUM
##CLASS=COBLENTZ
##ORIGIN=DOW CORNING CORP.
##OWNER=COBLENTZ SOCIETY
Collection (C) 2018 copyright by the U.S. Secretary of Commerce
on behalf of the United States of America. All rights reserved.
##DATE=Not specified, most likely prior to 1970
##NAMES=(methylsulfinyl)methane
##CAS REGISTRY NO=67-68-5
##MOLFORM=C2 H6 S O
##SOURCE REFERENCE=COBLENTZ NO. 4272
##$NIST SOURCE=COBLENTZ
##$NIST IMAGE=cob4272
##SPECTROMETER/DATA SYSTEM=Not specified, most likely a grating or hybrid spectrometer.
##STATE=SOLUTION (10.75% IN CCl4 FOR 3800-1300, 2.24% IN CS2 FOR 1300-620, AND 10.75% IN CCl4 FOR 620-250 CM^-^1) VERSUS SOLVENT
##PATH LENGTH=0.0105, 0.0105, AND 0.0095 CM (CsBr CELL)
##SAMPLING PROCEDURE=TRANSMISSION
##RESOLUTION=4
##DATA PROCESSING=DIGITIZED BY NIST FROM HARD COPY (FROM TWO SEGMENTS)
##XUNITS=1/CM
##YUNITS=TRANSMITTANCE
##XFACTOR=1.000000
##YFACTOR=1
##DELTAX=1.278982
##FIRSTX=224.78
##LASTX=3789.3
##FIRSTY=0.874
##MAXX=3789.3
##MINX=224.78
##MAXY=0.913995
##MINY=0
##NPOINTS=2788
##XYDATA=(X++(Y..Y))
224.780000 0.8740 0.8740 0.8740 0.8740 0.8740
231.174911 0.8720 0.8720 0.8720 0.8720 0.8720
237.569821 0.8720 0.8760 0.8770 0.8790 0.8790
243.964732 0.8810 0.8810 0.8810 0.8790 0.8790
250.359643 0.8770 0.8770 0.8760 0.8760 0.8760
256.754553 0.8760 0.8760 0.8740 0.8740 0.8740
263.149464 0.8720 0.8720 0.8720 0.8720 0.8720
269.544374 0.8720 0.8720 0.8720 0.8700 0.8690
275.939285 0.8650 0.8630 0.8620 0.8550 0.8530
282.334196 0.8490 0.8460 0.8440 0.8420 0.8390
288.729106 0.8350 0.8320 0.8270 0.8200 0.8180
295.124017 0.8150 0.8090 0.8060 0.8020 0.8010
301.518928 0.7950 0.7920 0.7900 0.7880 0.7850
307.913838 0.7810 0.7760 0.7710 0.7670 0.7620
314.308749 0.7590 0.7570 0.7480 0.7380 0.7121
320.703659 0.6921 0.6432 0.6261 0.5137 0.4693
327.098570 0.4270 0.3920 0.3920 0.4249 0.4669
333.493481 0.5158 0.5459 0.5749 0.6297 0.6608
339.888391 0.7190 0.7530 0.7660 0.7670 0.7869
346.283302 0.7950 0.7970 0.8020 0.8040 0.8080
352.678213 0.8080 0.8040 0.8010 0.7970 0.7970
359.073123 0.7950 0.7940 0.7880 0.7781 0.7740
365.468034 0.7640 0.7550 0.7410 0.7151 0.6871
371.862945 0.6571 0.6172 0.5374 0.5022 0.4642
378.257855 0.4640 0.4990 0.5270 0.5530 0.6029
384.652766 0.6608 0.6919 0.7259 0.7429 0.7778
391.047676 0.7950 0.8060 0.8160 0.8230 0.8270
397.442587 0.8300 0.8370 0.8410 0.8440 0.8480
403.837498 0.8490 0.8510 0.8530 0.8550 0.8560
410.232408 0.8600 0.8630 0.8630 0.8650 0.8670
416.627319 0.8670 0.8670 0.8670 0.8670 0.8670
423.022230 0.8650 0.8650 0.8650 0.8630 0.8620
429.417140 0.8600 0.8600 0.8600 0.8580 0.8580
435.812051 0.8580 0.8600 0.8600 0.8600 0.8600
442.206961 0.8580 0.8560 0.8550 0.8550 0.8510
448.601872 0.8490 0.8460 0.8321 0.8280 0.8250
454.996783 0.8230 0.8230 0.8270 0.8300 0.8390
461.391693 0.8550 0.8560 0.8580 0.8600 0.8600
467.786604 0.8600 0.8620 0.8630 0.8630 0.8630
474.181515 0.8630 0.8650 0.8650 0.8650 0.8650
480.576425 0.8650 0.8650 0.8650 0.8630 0.8630
486.971336 0.8630 0.8630 0.8620 0.8620 0.8630
493.366247 0.8630 0.8630 0.8630 0.8630 0.8630
499.761157 0.8650 0.8650 0.8630 0.8650 0.8650
506.156068 0.8650 0.8650 0.8650 0.8650 0.8650
512.550978 0.8630 0.8630 0.8630 0.8630 0.8630
518.945889 0.8650 0.8630 0.8630 0.8630 0.8630
525.340800 0.8620 0.8620 0.8620 0.8620 0.8620
531.735710 0.8620 0.8620 0.8630 0.8630 0.8630
538.130621 0.8630 0.8630 0.8630 0.8630 0.8630
544.525532 0.8650 0.8650 0.8650 0.8650 0.8650
550.920442 0.8650 0.8650 0.8650 0.8650 0.8650
557.315353 0.8650 0.8650 0.8650 0.8650 0.8650
563.710263 0.8650 0.8650 0.8650 0.8650 0.8650
570.105174 0.8650 0.8650 0.8650 0.8650 0.8650
576.500085 0.8650 0.8630 0.8630 0.8630 0.8630
582.894995 0.8630 0.8620 0.8620 0.8620 0.8620
589.289906 0.8600 0.8600 0.8600 0.8580 0.8580
595.684817 0.8560 0.8550 0.8530 0.8510 0.8490
602.079727 0.8480 0.8460 0.8440 0.8410 0.8370
608.474638 0.8340 0.8300 0.8280 0.8250 0.8210
614.869549 0.8110 0.8060 0.8010 0.7950 0.7940
621.264459 0.7900 0.7870 0.7850 0.7810 0.7780
627.659370 0.7760 0.7730 0.7660 0.7620 0.7600
634.054280 0.7590 0.7550 0.7550 0.7520 0.7480
640.449191 0.7430 0.7340 0.7260 0.7170 0.7120
646.844102 0.7060 0.6890 0.6840 0.6570 0.6311
653.239012 0.6101 0.6070 0.5980 0.5950 0.5910
659.633923 0.5890 0.5910 0.6020 0.6140 0.6330
666.028834 0.6629 0.6959 0.7010 0.7060 0.7060
672.423744 0.6990 0.6980 0.6910 0.6820 0.6640
678.818655 0.6500 0.6141 0.5423 0.5161 0.4792
685.213566 0.4450 0.4150 0.4110 0.4150 0.4290
691.608476 0.4519 0.4919 0.5348 0.5629 0.5889
698.003387 0.6100 0.6470 0.6920 0.7170 0.7390
704.398297 0.7460 0.7669 0.7740 0.7830 0.7949
710.793208 0.8010 0.8110 0.8150 0.8160 0.8200
717.188119 0.8210 0.8250 0.8280 0.8280 0.8300
723.583029 0.8320 0.8340 0.8340 0.8340 0.8350
729.977940 0.8350 0.8370 0.8390 0.8390 0.8410
736.372851 0.8440 0.8440 0.8460 0.8460 0.8480
742.767761 0.8490 0.8490 0.8510 0.8550 0.8580
749.162672 0.8580 0.8600 0.8630 0.8670 0.8670
755.557582 0.8690 0.8720 0.8720 0.8770 0.8790
761.952493 0.8810 0.8810 0.8810 0.8810 0.8810
768.347404 0.8830 0.8830 0.8840 0.8840 0.8840
774.742314 0.8860 0.8900 0.8980 0.9050 0.9100
781.137225 0.9120 0.9140 0.9120 0.9040 0.8911
787.532136 0.8770 0.8720 0.8690 0.8670 0.8650
793.927046 0.8650 0.8630 0.8620 0.8620 0.8620
800.321957 0.8630 0.8630 0.8620 0.8620 0.8600
806.716868 0.8580 0.8560 0.8560 0.8560 0.8580
813.111778 0.8580 0.8580 0.8600 0.8600 0.8600
819.506689 0.8600 0.8600 0.8600 0.8600 0.8600
825.901599 0.8600 0.8600 0.8600 0.8600 0.8600
832.296510 0.8600 0.8600 0.8600 0.8580 0.8580
838.691421 0.8560 0.8560 0.8550 0.8530 0.8530
845.086331 0.8510 0.8490 0.8490 0.8480 0.8440
851.481242 0.8410 0.8390 0.8370 0.8370 0.8370
857.876153 0.8370 0.8370 0.8340 0.8340 0.8340
864.271063 0.8320 0.8300 0.8250 0.8210 0.8180
870.665974 0.8150 0.8110 0.8060 0.8020 0.7970
877.060884 0.7940 0.7780 0.7590 0.7500 0.7480
883.455795 0.7500 0.7520 0.7530 0.7570 0.7670
889.850706 0.7740 0.7740 0.7780 0.7830 0.7850
896.245616 0.7850 0.7850 0.7830 0.7800 0.7760
902.640527 0.7690 0.7590 0.7500 0.7340 0.7260
909.035438 0.7170 0.6751 0.6431 0.5743 0.5252
915.430348 0.5090 0.4990 0.4990 0.5230 0.5410
921.825259 0.5510 0.5610 0.5670 0.5740 0.5879
928.220170 0.6020 0.6050 0.6140 0.6160 0.6090
934.615080 0.6000 0.5790 0.5351 0.4901 0.4273
941.009991 0.3890 0.3890 0.3960 0.4010 0.4150
947.404901 0.4220 0.4529 0.4789 0.5139 0.5489
953.799812 0.5630 0.5751 0.6210 0.6310 0.6520
960.194723 0.6820 0.6960 0.7080 0.7100 0.7190
966.589633 0.7220 0.7240 0.7240 0.7240 0.7240
972.984544 0.7220 0.7200 0.7200 0.7170 0.7150
979.379455 0.7080 0.7010 0.6870 0.6820 0.6750
985.774365 0.6660 0.6540 0.6470 0.6350 0.6091
992.169276 0.5879 0.5420 0.5160 0.5000 0.4340
998.564186 0.3920 0.3640 0.3151 0.2532 0.2261
1004.959097 0.1980 0.1790 0.1740 0.1720 0.1740
1011.354008 0.1830 0.1980 0.2070 0.2180 0.2260
1017.748918 0.2490 0.2670 0.2790 0.2860 0.2980
1024.143829 0.3000 0.2980 0.2930 0.2860 0.2671
1030.538740 0.2540 0.2440 0.2260 0.1980 0.1790
1036.933650 0.1570 0.1390 0.0891 0.0760 0.0611
1043.328561 0.0500 0.0380 0.0270 0.0170 0.0080
1049.723472 0.0030 0.0010 0.0010 0.0010 0.0010
1056.118382 0.0000 0.0000 0.0000 0.0000 0.0000
1062.513293 0.0000 0.0000 0.0010 0.0010 0.0010
1068.908203 0.0050 0.0080 0.0170 0.0290 0.0380
1075.303114 0.0660 0.0870 0.1060 0.1439 0.1898
1081.698025 0.2651 0.2981 0.3360 0.3710 0.4150
1088.092935 0.4450 0.4789 0.5059 0.5389 0.5510
1094.487846 0.5611 0.5880 0.6020 0.6090 0.6310
1100.882757 0.6360 0.6490 0.6730 0.6750 0.6800
1107.277667 0.6910 0.6980 0.7060 0.7120 0.7270
1113.672578 0.7310 0.7390 0.7430 0.7460 0.7500
1120.067488 0.7520 0.7590 0.7590 0.7600 0.7640
1126.462399 0.7670 0.7760 0.7810 0.7850 0.7900
1132.857310 0.7950 0.7970 0.8020 0.8040 0.8060
1139.252220 0.8080 0.8110 0.8160 0.8160 0.8180
1145.647131 0.8210 0.8230 0.8250 0.8300 0.8320
1152.042042 0.8320 0.8340 0.8350 0.8350 0.8350
1158.436952 0.8350 0.8350 0.8350 0.8370 0.8370
1164.831863 0.8370 0.8370 0.8390 0.8390 0.8390
1171.226774 0.8390 0.8390 0.8390 0.8390 0.8390
1177.621684 0.8390 0.8390 0.8390 0.8390 0.8370
1184.016595 0.8370 0.8370 0.8370 0.8370 0.8370
1190.411505 0.8370 0.8370 0.8370 0.8370 0.8370
1196.806416 0.8370 0.8370 0.8350 0.8350 0.8350
1203.201327 0.8350 0.8350 0.8350 0.8340 0.8340
1209.596237 0.8320 0.8320 0.8300 0.8300 0.8300
1215.991148 0.8300 0.8280 0.8280 0.8280 0.8280
1222.386059 0.8270 0.8270 0.8270 0.8250 0.8250
1228.780969 0.8250 0.8230 0.8230 0.8230 0.8210
1235.175880 0.8210 0.8200 0.8200 0.8180 0.8180
1241.570790 0.8180 0.8160 0.8160 0.8160 0.8150
1247.965701 0.8150 0.8150 0.8130 0.8130 0.8130
1254.360612 0.8130 0.8110 0.8110 0.8110 0.8090
1260.755522 0.8090 0.8080 0.8080 0.8080 0.8060
1267.150433 0.8060 0.8040 0.8040 0.8020 0.8020
1273.545344 0.8020 0.8010 0.8010 0.7990 0.7990
1279.940254 0.7970 0.7970 0.7970 0.7950 0.7950
1286.335165 0.7940 0.7940 0.7900 0.7870 0.7800
1292.730076 0.7740 0.7640 0.7450 0.7131 0.6851
1299.124986 0.6520 0.6430 0.6330 0.6210 0.6210
1305.519897 0.6430 0.6540 0.6640 0.6680 0.6919
1311.914807 0.6940 0.6940 0.6960 0.6990 0.6990
1318.309718 0.7010 0.7100 0.7310 0.7410 0.7410
1324.704629 0.7450 0.7570 0.7690 0.7800 0.7950
1331.099539 0.8010 0.8130 0.8150 0.8200 0.8210
1337.494450 0.8230 0.8270 0.8280 0.8300 0.8300
1343.889361 0.8300 0.8320 0.8340 0.8340 0.8340
1350.284271 0.8340 0.8320 0.8320 0.8320 0.8300
1356.679182 0.8300 0.8270 0.8250 0.8210 0.8180
1363.074093 0.8150 0.8110 0.8090 0.8080 0.8060
1369.469003 0.8020 0.7970 0.7940 0.7940 0.7870
1375.863914 0.7800 0.7690 0.7670 0.7660 0.7620
1382.258824 0.7600 0.7570 0.7500 0.7450 0.7360
1388.653735 0.7289 0.7130 0.7100 0.6960 0.6780
1395.048646 0.6490 0.6170 0.5471 0.4781 0.4650
1401.443556 0.4652 0.5230 0.5370 0.5510 0.5810
1407.838467 0.5810 0.5720 0.5490 0.5370 0.5370
1414.233378 0.5601 0.5811 0.6051 0.6350 0.6630
1420.628288 0.6630 0.6540 0.6470 0.6310 0.6031
1427.023199 0.5279 0.4927 0.4178 0.3538 0.2630
1433.418109 0.2630 0.2800 0.3559 0.4478 0.5128
1439.813020 0.5722 0.6312 0.7081 0.7310 0.7450
1446.207931 0.7660 0.7800 0.7940 0.8020 0.8110
1452.602841 0.8180 0.8200 0.8300 0.8300 0.8340
1458.997752 0.8350 0.8370 0.8390 0.8410 0.8410
1465.392663 0.8410 0.8410 0.8390 0.8370 0.8370
1471.787573 0.8350 0.8350 0.8340 0.8350 0.8370
1478.182484 0.8410 0.8420 0.8440 0.8460 0.8460
1484.577395 0.8460 0.8460 0.8460 0.8480 0.8480
1490.972305 0.8480 0.8480 0.8460 0.8440 0.8440
1497.367216 0.8440 0.8440 0.8440 0.8440 0.8440
1503.762126 0.8460 0.8460 0.8440 0.8440 0.8440
1510.157037 0.8440 0.8440 0.8440 0.8460 0.8460
1516.551948 0.8460 0.8480 0.8460 0.8460 0.8460
1522.946858 0.8460 0.8460 0.8440 0.8440 0.8440
1529.341769 0.8440 0.8440 0.8440 0.8440 0.8440
1535.736680 0.8440 0.8440 0.8420 0.8420 0.8420
1542.131590 0.8420 0.8410 0.8410 0.8410 0.8410
1548.526501 0.8410 0.8390 0.8370 0.8350 0.8340
1554.921411 0.8340 0.8340 0.8340 0.8320 0.8320
1561.316322 0.8320 0.8320 0.8320 0.8320 0.8320
1567.711233 0.8280 0.8280 0.8270 0.8250 0.8250
1574.106143 0.8230 0.8200 0.8180 0.8180 0.8210
1580.501054 0.8230 0.8270 0.8270 0.8300 0.8320
1586.895965 0.8320 0.8320 0.8320 0.8320 0.8320
1593.290875 0.8320 0.8320 0.8320 0.8320 0.8340
1599.685786 0.8350 0.8350 0.8350 0.8340 0.8340
1606.080697 0.8340 0.8340 0.8340 0.8350 0.8350
1612.475607 0.8370 0.8390 0.8410 0.8410 0.8410
1618.870518 0.8390 0.8390 0.8390 0.8390 0.8410
1625.265428 0.8410 0.8420 0.8460 0.8480 0.8490
1631.660339 0.8490 0.8490 0.8490 0.8490 0.8490
1638.055250 0.8490 0.8490 0.8490 0.8510 0.8510
1644.450160 0.8510 0.8510 0.8530 0.8550 0.8560
1650.845071 0.8560 0.8560 0.8560 0.8560 0.8580
1657.239982 0.8580 0.8600 0.8600 0.8620 0.8630
1663.634892 0.8630 0.8630 0.8630 0.8620 0.8620
1670.029803 0.8620 0.8600 0.8600 0.8600 0.8620
1676.424713 0.8630 0.8630 0.8630 0.8650 0.8650
1682.819624 0.8670 0.8670 0.8670 0.8690 0.8690
1689.214535 0.8690 0.8690 0.8690 0.8690 0.8690
1695.609445 0.8690 0.8700 0.8700 0.8700 0.8700
1702.004356 0.8700 0.8700 0.8700 0.8700 0.8700
1708.399267 0.8690 0.8690 0.8700 0.8700 0.8700
1714.794177 0.8700 0.8700 0.8700 0.8720 0.8720
1721.189088 0.8720 0.8720 0.8740 0.8760 0.8740
1727.583999 0.8740 0.8740 0.8720 0.8720 0.8720
1733.978909 0.8720 0.8720 0.8720 0.8720 0.8740
1740.373820 0.8740 0.8720 0.8720 0.8720 0.8720
1746.768730 0.8720 0.8720 0.8720 0.8720 0.8720
1753.163641 0.8740 0.8760 0.8740 0.8740 0.8740
1759.558552 0.8740 0.8760 0.8760 0.8760 0.8770
1765.953462 0.8770 0.8770 0.8790 0.8810 0.8810
1772.348373 0.8810 0.8790 0.8790 0.8770 0.8770
1778.743284 0.8770 0.8770 0.8790 0.8790 0.8790
1785.138194 0.8790 0.8810 0.8790 0.8790 0.8790
1791.533105 0.8790 0.8790 0.8790 0.8810 0.8810
1797.928015 0.8790 0.8790 0.8770 0.8770 0.8770
1804.322926 0.8770 0.8790 0.8790 0.8810 0.8810
1810.717837 0.8810 0.8810 0.8790 0.8790 0.8790
1817.112747 0.8810 0.8810 0.8810 0.8810 0.8810
1823.507658 0.8810 0.8810 0.8810 0.8810 0.8790
1829.902569 0.8790 0.8790 0.8790 0.8790 0.8790
1836.297479 0.8790 0.8790 0.8790 0.8790 0.8790
1842.692390 0.8770 0.8770 0.8770 0.8760 0.8770
1849.087301 0.8770 0.8770 0.8790 0.8770 0.8770
1855.482211 0.8770 0.8770 0.8770 0.8790 0.8810
1861.877122 0.8810 0.8810 0.8790 0.8770 0.8770
1868.272032 0.8770 0.8770 0.8760 0.8760 0.8760
1874.666943 0.8760 0.8760 0.8740 0.8740 0.8740
1881.061854 0.8740 0.8740 0.8740 0.8740 0.8740
1887.456764 0.8740 0.8740 0.8760 0.8760 0.8760
1893.851675 0.8760 0.8770 0.8770 0.8790 0.8790
1900.246586 0.8790 0.8790 0.8810 0.8810 0.8810
1906.641496 0.8810 0.8810 0.8810 0.8810 0.8790
1913.036407 0.8790 0.8790 0.8770 0.8770 0.8770
1919.431317 0.8770 0.8760 0.8740 0.8720 0.8720
1925.826228 0.8720 0.8720 0.8720 0.8720 0.8720
1932.221139 0.8720 0.8700 0.8700 0.8700 0.8690
1938.616049 0.8690 0.8690 0.8690 0.8670 0.8670
1945.010960 0.8670 0.8670 0.8670 0.8670 0.8670
1951.405871 0.8690 0.8690 0.8690 0.8690 0.8690
1957.800781 0.8700 0.8700 0.8690 0.8690 0.8690
1964.195692 0.8690 0.8690 0.8670 0.8670 0.8650
1970.590603 0.8650 0.8650 0.8650 0.8650 0.8630
1976.985513 0.8630 0.8630 0.8630 0.8630 0.8630
1983.380424 0.8630 0.8630 0.8630 0.8630 0.8630
1989.775334 0.8630 0.8630 0.8630 0.8630 0.8620
1996.170245 0.8600 0.8600 0.8600 0.8580 0.8580
2002.565156 0.8580 0.8590 0.8600 0.8600 0.8600
2008.960066 0.8610 0.8620 0.8635 0.8650 0.8675
2015.354977 0.8699 0.8720 0.8739 0.8774 0.8809
2021.749888 0.8825 0.8839 0.8840 0.8840 0.8840
2028.144798 0.8840 0.8840 0.8840 0.8850 0.8860
2034.539709 0.8860 0.8860 0.8870 0.8880 0.8890
2040.934619 0.8900 0.8900 0.8900 0.8900 0.8900
2047.329530 0.8881 0.8861 0.8860 0.8860 0.8850
2053.724441 0.8840 0.8835 0.8830 0.8820 0.8810
2060.119351 0.8810 0.8810 0.8800 0.8790 0.8781
2066.514262 0.8771 0.8765 0.8760 0.8751 0.8741
2072.909173 0.8731 0.8721 0.8720 0.8720 0.8710
2079.304083 0.8700 0.8700 0.8700 0.8695 0.8690
2085.698994 0.8690 0.8690 0.8671 0.8651 0.8650
2092.093905 0.8650 0.8641 0.8631 0.8630 0.8630
2098.488815 0.8616 0.8601 0.8591 0.8581 0.8566
2104.883726 0.8551 0.8541 0.8531 0.8530 0.8530
2111.278636 0.8530 0.8530 0.8530 0.8530 0.8530
2117.673547 0.8530 0.8530 0.8530 0.8539 0.8549
2124.068458 0.8555 0.8560 0.8560 0.8560 0.8560
2130.463368 0.8560 0.8569 0.8579 0.8603 0.8628
2136.858279 0.8657 0.8687 0.8704 0.8719 0.8720
2143.253190 0.8720 0.8729 0.8739 0.8749 0.8759
2149.648100 0.8760 0.8760 0.8751 0.8741 0.8731
2156.043011 0.8721 0.8720 0.8720 0.8720 0.8720
2162.437922 0.8720 0.8720 0.8720 0.8720 0.8720
2168.832832 0.8720 0.8720 0.8720 0.8729 0.8739
2175.227743 0.8740 0.8740 0.8731 0.8721 0.8720
2181.622653 0.8720 0.8711 0.8701 0.8700 0.8700
2188.017564 0.8700 0.8700 0.8700 0.8700 0.8696
2194.412475 0.8691 0.8690 0.8690 0.8690 0.8690
2200.807385 0.8690 0.8690 0.8690 0.8690 0.8690
2207.202296 0.8690 0.8690 0.8690 0.8690 0.8690
2213.597207 0.8690 0.8690 0.8690 0.8690 0.8690
2219.992117 0.8690 0.8694 0.8699 0.8700 0.8700
2226.387028 0.8700 0.8700 0.8696 0.8691 0.8690
2232.781938 0.8690 0.8690 0.8690 0.8690 0.8690
2239.176849 0.8690 0.8690 0.8682 0.8672 0.8670
2245.571760 0.8670 0.8653 0.8633 0.8630 0.8630
2251.966670 0.8630 0.8630 0.8630 0.8630 0.8638
2258.361581 0.8648 0.8658 0.8668 0.8678 0.8688
2264.756492 0.8694 0.8699 0.8700 0.8700 0.8708
2271.151402 0.8718 0.8720 0.8720 0.8712 0.8702
2277.546313 0.8696 0.8691 0.8674 0.8653 0.8650
2283.941224 0.8650 0.8642 0.8632 0.8626 0.8621
2290.336134 0.8620 0.8620 0.8620 0.8620 0.8620
2296.731045 0.8620 0.8620 0.8620 0.8620 0.8620
2303.125955 0.8620 0.8620 0.8620 0.8620 0.8620
2309.520866 0.8620 0.8620 0.8620 0.8612 0.8602
2315.915777 0.8592 0.8582 0.8572 0.8562 0.8560
2322.310687 0.8560 0.8556 0.8551 0.8550 0.8550
2328.705598 0.8550 0.8550 0.8554 0.8559 0.8568
2335.100509 0.8578 0.8596 0.8616 0.8648 0.8682
2341.495419 0.8710 0.8735 0.8740 0.8740 0.8740
2347.890330 0.8740 0.8752 0.8767 0.8793 0.8823
2354.285240 0.8834 0.8839 0.8840 0.8840 0.8836
2360.680151 0.8831 0.8822 0.8812 0.8802 0.8792
2367.075062 0.8771 0.8746 0.8732 0.8722 0.8720
2373.469972 0.8720 0.8720 0.8720 0.8720 0.8720
2379.864883 0.8720 0.8720 0.8720 0.8720 0.8720
2386.259794 0.8720 0.8720 0.8720 0.8720 0.8720
2392.654704 0.8720 0.8720 0.8720 0.8720 0.8720
2399.049615 0.8720 0.8720 0.8720 0.8720 0.8720
2405.444526 0.8720 0.8720 0.8720 0.8720 0.8720
2411.839436 0.8720 0.8720 0.8720 0.8720 0.8720
2418.234347 0.8720 0.8720 0.8720 0.8720 0.8720
2424.629257 0.8720 0.8720 0.8720 0.8720 0.8720
2431.024168 0.8720 0.8720 0.8720 0.8720 0.8720
2437.419079 0.8720 0.8720 0.8720 0.8727 0.8737
2443.813989 0.8740 0.8740 0.8740 0.8740 0.8740
2450.208900 0.8740 0.8740 0.8740 0.8740 0.8740
2456.603811 0.8747 0.8757 0.8753 0.8743 0.8740
2462.998721 0.8740 0.8740 0.8740 0.8733 0.8723
2469.393632 0.8727 0.8737 0.8747 0.8757 0.8760
2475.788542 0.8760 0.8753 0.8743 0.8733 0.8723
2482.183453 0.8713 0.8703 0.8700 0.8700 0.8700
2488.578364 0.8700 0.8707 0.8717 0.8720 0.8720
2494.973274 0.8720 0.8720 0.8720 0.8720 0.8720
2501.368185 0.8720 0.8720 0.8720 0.8720 0.8720
2507.763096 0.8720 0.8720 0.8720 0.8720 0.8727
2514.158006 0.8737 0.8740 0.8740 0.8740 0.8740
2520.552917 0.8740 0.8740 0.8740 0.8740 0.8740
2526.947828 0.8740 0.8740 0.8740 0.8733 0.8723
2533.342738 0.8720 0.8720 0.8713 0.8703 0.8700
2539.737649 0.8700 0.8700 0.8700 0.8700 0.8700
2546.132559 0.8697 0.8692 0.8690 0.8690 0.8690
2552.527470 0.8690 0.8690 0.8690 0.8690 0.8690
2558.922381 0.8684 0.8674 0.8664 0.8653 0.8643
2565.317291 0.8633 0.8630 0.8630 0.8627 0.8622
2571.712202 0.8620 0.8620 0.8620 0.8620 0.8620
2578.107113 0.8620 0.8623 0.8628 0.8636 0.8646
2584.502023 0.8650 0.8650 0.8656 0.8666 0.8676
2590.896934 0.8686 0.8690 0.8690 0.8690 0.8690
2597.291844 0.8693 0.8698 0.8697 0.8692 0.8690
2603.686755 0.8690 0.8690 0.8690 0.8690 0.8690
2610.081666 0.8690 0.8690 0.8684 0.8674 0.8676
2616.476576 0.8686 0.8690 0.8690 0.8690 0.8690
2622.871487 0.8690 0.8690 0.8693 0.8698 0.8700
2629.266398 0.8700 0.8700 0.8700 0.8700 0.8700
2635.661308 0.8700 0.8700 0.8700 0.8700 0.8700
2642.056219 0.8700 0.8700 0.8700 0.8700 0.8700
2648.451130 0.8700 0.8700 0.8700 0.8700 0.8700
2654.846040 0.8700 0.8700 0.8700 0.8697 0.8692
2661.240951 0.8690 0.8690 0.8690 0.8690 0.8690
2667.635861 0.8690 0.8684 0.8674 0.8670 0.8670
2674.030772 0.8664 0.8654 0.8650 0.8650 0.8644
2680.425683 0.8634 0.8627 0.8622 0.8620 0.8620
2686.820593 0.8623 0.8628 0.8636 0.8646 0.8650
2693.215504 0.8650 0.8650 0.8650 0.8644 0.8634
2699.610415 0.8630 0.8630 0.8630 0.8630 0.8630
2706.005325 0.8630 0.8630 0.8630 0.8630 0.8630
2712.400236 0.8630 0.8630 0.8630 0.8630 0.8630
2718.795146 0.8630 0.8630 0.8630 0.8630 0.8630
2725.190057 0.8630 0.8630 0.8630 0.8630 0.8630
2731.584968 0.8630 0.8630 0.8630 0.8630 0.8630
2737.979878 0.8630 0.8630 0.8630 0.8630 0.8630
2744.374789 0.8630 0.8630 0.8630 0.8630 0.8630
2750.769700 0.8630 0.8630 0.8630 0.8630 0.8630
2757.164610 0.8630 0.8630 0.8630 0.8627 0.8622
2763.559521 0.8615 0.8605 0.8600 0.8600 0.8600
2769.954432 0.8600 0.8595 0.8585 0.8580 0.8580
2776.349342 0.8572 0.8557 0.8545 0.8535 0.8530
2782.744253 0.8530 0.8517 0.8493 0.8475 0.8465
2789.139163 0.8450 0.8430 0.8413 0.8397 0.8385
2795.534074 0.8375 0.8370 0.8370 0.8365 0.8355
2801.928985 0.8348 0.8343 0.8340 0.8340 0.8340
2808.323895 0.8340 0.8340 0.8340 0.8340 0.8340
2814.718806 0.8340 0.8340 0.8340 0.8340 0.8340
2821.113717 0.8340 0.8340 0.8340 0.8342 0.8347
2827.508627 0.8350 0.8350 0.8350 0.8350 0.8350
2833.903538 0.8350 0.8355 0.8365 0.8370 0.8370
2840.298449 0.8379 0.8399 0.8412 0.8417 0.8420
2846.693359 0.8420 0.8420 0.8420 0.8418 0.8413
2853.088270 0.8405 0.8395 0.8390 0.8390 0.8385
2859.483180 0.8375 0.8365 0.8356 0.8348 0.8343
2865.878091 0.8340 0.8340 0.8336 0.8325 0.8315
2872.273002 0.8305 0.8295 0.8285 0.8278 0.8273
2878.667912 0.8266 0.8256 0.8246 0.8236 0.8226
2885.062823 0.8216 0.8203 0.8188 0.8174 0.8159
2891.457734 0.8146 0.8136 0.8106 0.8051 0.7998
2897.852644 0.7948 0.7885 0.7805 0.7714 0.7609
2904.247555 0.7500 0.7385 0.7273 0.7163 0.7011
2910.642465 0.6801 0.6369 0.5630 0.5200 0.5200
2917.037376 0.5307 0.5567 0.5827 0.6091 0.6415
2923.432287 0.6819 0.7206 0.7570 0.7829 0.7943
2929.827197 0.8025 0.8060 0.8086 0.8101 0.8114
2936.222108 0.8124 0.8130 0.8130 0.8130 0.8130
2942.617019 0.8130 0.8130 0.8126 0.8116 0.8106
2949.011929 0.8096 0.8088 0.8083 0.8076 0.8066
2955.406840 0.8056 0.8046 0.8020 0.7970 0.7936
2961.801751 0.7926 0.7912 0.7892 0.7874 0.7859
2968.196661 0.7842 0.7822 0.7800 0.7775 0.7750
2974.591572 0.7725 0.7696 0.7661 0.7613 0.7543
2980.986482 0.7454 0.7334 0.7233 0.7163 0.7086
2987.381393 0.6996 0.6884 0.6734 0.6579 0.6415
2993.776304 0.6232 0.6017 0.5880 0.5880 0.5936
3000.171214 0.6080 0.6223 0.6363 0.6454 0.6464
3006.566125 0.6544 0.6744 0.6929 0.7088 0.7226
3012.961036 0.7326 0.7428 0.7532 0.7625 0.7695
3019.355946 0.7756 0.7801 0.7846 0.7891 0.7924
3025.750857 0.7934 0.7949 0.7974 0.7995 0.8010
3032.145767 0.8027 0.8047 0.8069 0.8094 0.8110
3038.540678 0.8110 0.8113 0.8123 0.8130 0.8130
3044.935589 0.8135 0.8150 0.8163 0.8173 0.8184
3051.330499 0.8194 0.8202 0.8207 0.8210 0.8210
3057.725410 0.8213 0.8223 0.8233 0.8243 0.8250
3064.120321 0.8250 0.8253 0.8263 0.8272 0.8277
3070.515231 0.8280 0.8280 0.8283 0.8293 0.8303
3076.910142 0.8313 0.8323 0.8333 0.8345 0.8360
3083.305053 0.8370 0.8370 0.8373 0.8383 0.8390
3089.699963 0.8390 0.8390 0.8390 0.8390 0.8390
3096.094874 0.8390 0.8390 0.8390 0.8390 0.8390
3102.489784 0.8390 0.8390 0.8390 0.8390 0.8390
3108.884695 0.8390 0.8390 0.8390 0.8390 0.8390
3115.279606 0.8390 0.8393 0.8403 0.8411 0.8416
3121.674516 0.8426 0.8446 0.8460 0.8460 0.8460
3128.069427 0.8460 0.8460 0.8460 0.8463 0.8473
3134.464338 0.8480 0.8480 0.8480 0.8480 0.8480
3140.859248 0.8480 0.8480 0.8480 0.8480 0.8480
3147.254159 0.8480 0.8480 0.8480 0.8480 0.8480
3153.649069 0.8480 0.8481 0.8486 0.8490 0.8490
3160.043980 0.8490 0.8490 0.8490 0.8490 0.8493
3166.438891 0.8503 0.8510 0.8510 0.8510 0.8510
3172.833801 0.8513 0.8523 0.8527 0.8517 0.8513
3179.228712 0.8523 0.8530 0.8530 0.8533 0.8543
3185.623623 0.8550 0.8550 0.8550 0.8550 0.8551
3192.018533 0.8556 0.8560 0.8560 0.8562 0.8572
3198.413444 0.8582 0.8592 0.8600 0.8600 0.8600
3204.808355 0.8600 0.8600 0.8600 0.8598 0.8588
3211.203265 0.8580 0.8580 0.8582 0.8592 0.8600
3217.598176 0.8600 0.8600 0.8600 0.8600 0.8600
3223.993086 0.8600 0.8600 0.8602 0.8612 0.8620
3230.387997 0.8620 0.8620 0.8620 0.8620 0.8620
3236.782908 0.8620 0.8620 0.8621 0.8626 0.8630
3243.177818 0.8630 0.8630 0.8630 0.8630 0.8630
3249.572729 0.8630 0.8630 0.8632 0.8642 0.8650
3255.967640 0.8650 0.8654 0.8674 0.8690 0.8690
3262.362550 0.8690 0.8690 0.8690 0.8690 0.8690
3268.757461 0.8690 0.8688 0.8678 0.8670 0.8670
3275.152371 0.8668 0.8658 0.8648 0.8638 0.8630
3281.547282 0.8630 0.8629 0.8624 0.8620 0.8620
3287.942193 0.8618 0.8608 0.8598 0.8588 0.8580
3294.337103 0.8580 0.8580 0.8580 0.8580 0.8580
3300.732014 0.8580 0.8580 0.8580 0.8580 0.8582
3307.126925 0.8592 0.8600 0.8600 0.8598 0.8588
3313.521835 0.8580 0.8580 0.8580 0.8580 0.8580
3319.916746 0.8580 0.8580 0.8580 0.8580 0.8580
3326.311657 0.8580 0.8580 0.8580 0.8580 0.8580
3332.706567 0.8580 0.8580 0.8580 0.8580 0.8580
3339.101478 0.8580 0.8580 0.8582 0.8592 0.8600
3345.496388 0.8600 0.8600 0.8600 0.8600 0.8600
3351.891299 0.8599 0.8589 0.8579 0.8568 0.8559
3358.286210 0.8554 0.8548 0.8538 0.8530 0.8530
3364.681120 0.8529 0.8519 0.8510 0.8510 0.8510
3371.076031 0.8510 0.8510 0.8510 0.8510 0.8510
3377.470942 0.8510 0.8510 0.8510 0.8510 0.8510
3383.865852 0.8510 0.8510 0.8510 0.8509 0.8499
3390.260763 0.8490 0.8490 0.8490 0.8490 0.8490
3396.655673 0.8490 0.8489 0.8484 0.8480 0.8480
3403.050584 0.8480 0.8480 0.8479 0.8469 0.8460
3409.445495 0.8460 0.8460 0.8460 0.8460 0.8460
3415.840405 0.8460 0.8460 0.8459 0.8449 0.8440
3422.235316 0.8440 0.8440 0.8440 0.8440 0.8440
3428.630227 0.8440 0.8440 0.8440 0.8440 0.8440
3435.025137 0.8440 0.8441 0.8451 0.8460 0.8460
3441.420048 0.8460 0.8460 0.8460 0.8460 0.8461
3447.814959 0.8471 0.8480 0.8480 0.8480 0.8480
3454.209869 0.8480 0.8480 0.8480 0.8480 0.8480
3460.604780 0.8480 0.8480 0.8480 0.8480 0.8485
3466.999690 0.8490 0.8490 0.8491 0.8501 0.8510
3473.394601 0.8510 0.8510 0.8510 0.8511 0.8521
3479.789512 0.8530 0.8530 0.8530 0.8530 0.8530
3486.184422 0.8530 0.8530 0.8530 0.8530 0.8530
3492.579333 0.8530 0.8530 0.8531 0.8541 0.8550
3498.974244 0.8550 0.8550 0.8555 0.8560 0.8560
3505.369154 0.8560 0.8560 0.8560 0.8560 0.8561
3511.764065 0.8571 0.8580 0.8580 0.8581 0.8591
3518.158975 0.8600 0.8600 0.8600 0.8600 0.8600
3524.553886 0.8610 0.8620 0.8625 0.8630 0.8630
3530.948797 0.8630 0.8640 0.8650 0.8650 0.8650
3537.343707 0.8660 0.8670 0.8670 0.8670 0.8670
3543.738618 0.8670 0.8680 0.8690 0.8690 0.8690
3550.133529 0.8690 0.8690 0.8695 0.8700 0.8710
3556.528439 0.8720 0.8720 0.8720 0.8730 0.8740
3562.923350 0.8740 0.8740 0.8740 0.8740 0.8750
3569.318261 0.8760 0.8765 0.8770 0.8780 0.8790
3575.713171 0.8815 0.8840 0.8860 0.8880 0.8880
3582.108082 0.8880 0.8860 0.8840 0.8840 0.8840
3588.502992 0.8835 0.8830 0.8820 0.8810 0.8810
3594.897903 0.8810 0.8800 0.8790 0.8790 0.8790
3601.292814 0.8790 0.8790 0.8800 0.8810 0.8810
3607.687724 0.8810 0.8820 0.8830 0.8830 0.8830
3614.082635 0.8835 0.8840 0.8840 0.8840 0.8860
3620.477546 0.8880 0.8880 0.8880 0.8880 0.8880
3626.872456 0.8860 0.8840 0.8840 0.8840 0.8835
3633.267367 0.8830 0.8830 0.8830 0.8835 0.8840
3639.662278 0.8850 0.8860 0.8870 0.8880 0.8880
3646.057188 0.8880 0.8861 0.8841 0.8840 0.8840
3652.452099 0.8835 0.8830 0.8820 0.8810 0.8800
3658.847009 0.8790 0.8790 0.8790 0.8780 0.8770
3665.241920 0.8765 0.8760 0.8750 0.8740 0.8730
3671.636831 0.8720 0.8710 0.8700 0.8695 0.8690
3678.031741 0.8690 0.8690 0.8704 0.8719 0.8739
3684.426652 0.8759 0.8774 0.8789 0.8809 0.8829
3690.821563 0.8830 0.8830 0.8835 0.8840 0.8859
3697.216473 0.8879 0.8880 0.8880 0.8889 0.8899
3703.611384 0.8900 0.8900 0.8891 0.8881 0.8880
3710.006294 0.8880 0.8880 0.8880 0.8889 0.8899
3716.401205 0.8900 0.8900 0.8905 0.8910 0.8910
3722.796116 0.8910 0.8910 0.8910 0.8919 0.8929
3729.191026 0.8930 0.8930 0.8930 0.8930 0.8939
3735.585937 0.8949 0.8950 0.8950 0.8950 0.8950
3741.980848 0.8950 0.8950 0.8950 0.8950 0.8950
3748.375758 0.8950 0.8950 0.8950 0.8941 0.8931
3754.770669 0.8930 0.8930 0.8921 0.8911 0.8906
3761.165580 0.8901 0.8900 0.8900 0.8900 0.8900
3767.560490 0.8900 0.8900 0.8900 0.8900 0.8900
3773.955401 0.8900 0.8900 0.8900 0.8900 0.8900
3780.350311 0.8891 0.8881 0.8880 0.8880 0.8880
3786.745222 0.8880 0.8880 0.8880
##END=
