##TITLE=Methane, dichloro-
##JCAMP-DX=4.24
##DATA TYPE=INFRARED SPECTRUM
##CLASS=COBLENTZ
##ORIGIN=DOW CHEMICAL COMPANY
##OWNER=Copyright (C) 1987 by the Coblentz Society
Collection (C) 2018 copyright by the U.S. Secretary of Commerce
on behalf of the United States of America. All rights reserved.
##DATE=1964
##NAMES=dichloromethane
METHYLENE CHLORIDE
##CAS REGISTRY NO=75-09-2
##MOLFORM=C H2 Cl2
##SOURCE REFERENCE=COBLENTZ NO. 8835
##$NIST SOURCE=COBLENTZ
##$NIST IMAGE=cob8835
##SPECTROMETER/DATA SYSTEM=DOW KBr FOREPRISM-GRATING
##INSTRUMENT PARAMETERS=GRATING CHANGED AT 5.0, 7.5, 15.0 MICRON
##STATE=GAS (100 mmHg, N2 ADDED, TOTAL PRESSURE 600 mmHg)
##PATH LENGTH=5 CM
$$ SPECTRAL CONTAMINATION DUE TO Cl2C=CCl2 AROUND 915 CM^-^1
##SAMPLING PROCEDURE=TRANSMISSION
##RESOLUTION=2
##DATA PROCESSING=DIGITIZED BY COBLENTZ SOCIETY (BATCH II) FROM HARD COPY
##XUNITS=1/CM
##YUNITS=TRANSMITTANCE
##XFACTOR=1.0
##YFACTOR=1
##FIRSTX=458
##LASTX=3774
##FIRSTY=0.868
##MAXX=3774
##MINX=458
##MAXY=0.9188
##MINY=0.0017
##NPOINTS=3317
##XYDATA=(X++(Y..Y))
458.000000 0.8680 0.8667 0.8657 0.8647 0.8637
463.000000 0.8627 0.8618 0.8609 0.8602 0.8595
468.000000 0.8589 0.8582 0.8576 0.8571 0.8565
473.000000 0.8560 0.8553 0.8545 0.8536 0.8528
478.000000 0.8519 0.8511 0.8503 0.8488 0.8473
483.000000 0.8469 0.8459 0.8506 0.8540 0.8574
488.000000 0.8612 0.8648 0.8670 0.8692 0.8714
493.000000 0.8733 0.8749 0.8764 0.8780 0.8795
498.000000 0.8802 0.8807 0.8812 0.8815 0.8818
503.000000 0.8820 0.8823 0.8826 0.8829 0.8831
508.000000 0.8834 0.8835 0.8834 0.8834 0.8833
513.000000 0.8833 0.8832 0.8832 0.8831 0.8832
518.000000 0.8833 0.8835 0.8836 0.8837 0.8838
523.000000 0.8840 0.8844 0.8848 0.8852 0.8856
528.000000 0.8860 0.8864 0.8868 0.8872 0.8876
533.000000 0.8879 0.8881 0.8883 0.8885 0.8887
538.000000 0.8889 0.8891 0.8893 0.8895 0.8897
543.000000 0.8899 0.8901 0.8903 0.8905 0.8907
548.000000 0.8909 0.8911 0.8913 0.8915 0.8917
553.000000 0.8919 0.8921 0.8922 0.8924 0.8926
558.000000 0.8928 0.8930 0.8931 0.8933 0.8935
563.000000 0.8937 0.8938 0.8941 0.8944 0.8947
568.000000 0.8949 0.8952 0.8955 0.8958 0.8961
573.000000 0.8963 0.8966 0.8969 0.8972 0.8975
578.000000 0.8977 0.8980 0.8983 0.8986 0.8988
583.000000 0.8991 0.8994 0.8996 0.9000 0.9003
588.000000 0.9006 0.9010 0.9013 0.9016 0.9019
593.000000 0.9023 0.9027 0.9031 0.9035 0.9039
598.000000 0.9008 0.9038 0.9037 0.9036 0.9035
603.000000 0.9030 0.9025 0.9020 0.9015 0.9011
608.000000 0.9007 0.9003 0.9000 0.8996 0.8993
613.000000 0.8993 0.8993 0.8993 0.8993 0.8993
618.000000 0.8993 0.8999 0.9004 0.9010 0.9015
623.000000 0.9021 0.9027 0.9032 0.9038 0.9044
628.000000 0.9049 0.9053 0.9055 0.9058 0.9056
633.000000 0.9052 0.9048 0.9044 0.9041 0.9034
638.000000 0.9024 0.9015 0.9005 0.8996 0.8987
643.000000 0.8977 0.8968 0.8959 0.8946 0.8933
648.000000 0.8921 0.8908 0.8895 0.8882 0.8869
653.000000 0.8856 0.8836 0.8816 0.8796 0.8776
658.000000 0.8756 0.8734 0.8710 0.8685 0.8661
663.000000 0.8636 0.8609 0.8580 0.8551 0.8518
668.000000 0.8470 0.8422 0.8368 0.8314 0.8252
673.000000 0.8180 0.8108 0.8037 0.7967 0.7896
678.000000 0.7829 0.7763 0.7696 0.7615 0.7519
683.000000 0.7416 0.7309 0.7202 0.7095 0.6988
688.000000 0.6881 0.6774 0.6667 0.6559 0.6452
693.000000 0.6345 0.6238 0.6131 0.6024 0.5917
698.000000 0.5810 0.5703 0.5595 0.5526 0.5458
703.000000 0.5395 0.5325 0.5238 0.5149 0.5076
708.000000 0.5054 0.5054 0.5328 0.5548 0.5690
713.000000 0.5697 0.5679 0.5715 0.5159 0.4652
718.000000 0.4144 0.3636 0.3128 0.2660 0.2662
723.000000 0.2656 0.2684 0.2711 0.2808 0.2949
728.000000 0.2986 0.3002 0.2802 0.2503 0.2204
733.000000 0.1905 0.1606 0.1307 0.1102 0.0152
738.000000 0.0096 0.0052 0.0030 0.0025 0.0022
743.000000 0.0022 0.0024 0.0024 0.0024 0.0025
748.000000 0.0026 0.0027 0.0028 0.0029 0.0031
753.000000 0.0032 0.0032 0.0032 0.0032 0.0017
758.000000 0.0032 0.0032 0.0032 0.0032 0.0032
763.000000 0.0033 0.0035 0.0036 0.0043 0.0058
768.000000 0.0094 0.0156 0.0268 0.0420 0.1034
773.000000 0.1874 0.2715 0.3555 0.4395 0.5235
778.000000 0.6075 0.6915 0.7238 0.7418 0.7596
783.000000 0.7964 0.8490 0.8608 0.8712 0.8788
788.000000 0.8843 0.8863 0.8878 0.8893 0.8902
793.000000 0.8911 0.8918 0.8923 0.8927 0.8932
798.000000 0.8935 0.8936 0.8937 0.8937 0.8938
803.000000 0.8939 0.8945 0.8950 0.8957 0.8970
808.000000 0.8984 0.8999 0.9018 0.9036 0.9035
813.000000 0.9033 0.9032 0.9029 0.9027 0.9025
818.000000 0.9022 0.9020 0.9017 0.9013 0.9010
823.000000 0.9007 0.9004 0.9001 0.9002 0.9003
828.000000 0.9004 0.9018 0.9059 0.9055 0.9045
833.000000 0.9036 0.9029 0.9023 0.9017 0.9013
838.000000 0.9021 0.9037 0.9050 0.9060 0.9068
843.000000 0.9073 0.9078 0.9083 0.9087 0.9090
848.000000 0.9094 0.9097 0.9096 0.9095 0.9093
853.000000 0.9089 0.9086 0.9082 0.9079 0.9075
858.000000 0.9072 0.9066 0.9057 0.9049 0.9040
863.000000 0.9031 0.9023 0.9015 0.9007 0.8999
868.000000 0.8990 0.8982 0.8972 0.8960 0.8949
873.000000 0.8938 0.8927 0.8916 0.8905 0.8894
878.000000 0.8884 0.8875 0.8865 0.8855 0.8846
883.000000 0.8836 0.8826 0.8809 0.8792 0.8774
888.000000 0.8756 0.8738 0.8710 0.8680 0.8646
893.000000 0.8416 0.8187 0.7957 0.7952 0.8032
898.000000 0.8304 0.8575 0.8668 0.8673 0.8637
903.000000 0.8593 0.8549 0.8505 0.8461 0.8417
908.000000 0.8373 0.8329 0.8238 0.8175 0.8156
913.000000 0.8159 0.8165 0.8174 0.8186 0.8201
918.000000 0.8223 0.8255 0.8291 0.8332 0.8373
923.000000 0.8423 0.8473 0.8521 0.8569 0.8624
928.000000 0.8683 0.8742 0.8805 0.8869 0.8904
933.000000 0.8933 0.8954 0.8974 0.8985 0.8996
938.000000 0.9007 0.9017 0.9028 0.9039 0.9050
943.000000 0.9062 0.9068 0.9073 0.9078 0.9083
948.000000 0.9086 0.9089 0.9091 0.9094 0.9096
953.000000 0.9098 0.9101 0.9103 0.9106 0.9108
958.000000 0.9111 0.9113 0.9116 0.9119 0.9119
963.000000 0.9119 0.9119 0.9119 0.9119 0.9120
968.000000 0.9120 0.9121 0.9121 0.9121 0.9122
973.000000 0.9122 0.9122 0.9124 0.9128 0.9131
978.000000 0.9135 0.9138 0.9141 0.9142 0.9142
983.000000 0.9142 0.9141 0.9139 0.9137 0.9136
988.000000 0.9134 0.9132 0.9130 0.9129 0.9128
993.000000 0.9127 0.9126 0.9125 0.9124 0.9123
998.000000 0.9122 0.9121 0.9121 0.9120 0.9119
1003.000000 0.9118 0.9117 0.9116 0.9115 0.9114
1008.000000 0.9114 0.9114 0.9114 0.9114 0.9114
1013.000000 0.9114 0.9114 0.9114 0.9114 0.9115
1018.000000 0.9115 0.9115 0.9116 0.9116 0.9117
1023.000000 0.9117 0.9117 0.9118 0.9116 0.9112
1028.000000 0.9108 0.9105 0.9101 0.9098 0.9094
1033.000000 0.9090 0.9087 0.9083 0.9079 0.9076
1038.000000 0.9072 0.9068 0.9065 0.9061 0.9058
1043.000000 0.9055 0.9052 0.9056 0.9071 0.9068
1048.000000 0.9074 0.9080 0.9086 0.9079 0.9068
1053.000000 0.9056 0.9045 0.9033 0.9021 0.9019
1058.000000 0.9025 0.9028 0.9028 0.9019 0.9005
1063.000000 0.8991 0.8987 0.8991 0.8989 0.8982
1068.000000 0.8975 0.8967 0.8959 0.8951 0.8944
1073.000000 0.8940 0.8936 0.8932 0.8937 0.8945
1078.000000 0.8954 0.8962 0.8968 0.8975 0.8981
1083.000000 0.8986 0.8990 0.8994 0.8998 0.9002
1088.000000 0.9006 0.9010 0.9013 0.9017 0.9021
1093.000000 0.9025 0.9029 0.9032 0.9036 0.9040
1098.000000 0.9043 0.9047 0.9051 0.9054 0.9058
1103.000000 0.9061 0.9065 0.9068 0.9071 0.9075
1108.000000 0.9078 0.9081 0.9084 0.9083 0.9079
1113.000000 0.9075 0.9072 0.9068 0.9064 0.9060
1118.000000 0.9056 0.9052 0.9053 0.9058 0.9064
1123.000000 0.9069 0.9074 0.9079 0.9083 0.9086
1128.000000 0.9089 0.9092 0.9095 0.9096 0.9093
1133.000000 0.9089 0.9086 0.9081 0.9074 0.9067
1138.000000 0.9060 0.9053 0.9047 0.9041 0.9035
1143.000000 0.9031 0.9033 0.9035 0.9038 0.9040
1148.000000 0.9042 0.9045 0.9047 0.9050 0.9053
1153.000000 0.9055 0.9058 0.9061 0.9064 0.9067
1158.000000 0.9070 0.9073 0.9077 0.9080 0.9083
1163.000000 0.9085 0.9088 0.9090 0.9092 0.9094
1168.000000 0.9096 0.9098 0.9099 0.9094 0.9088
1173.000000 0.9083 0.9075 0.9065 0.9055 0.9044
1178.000000 0.9034 0.9030 0.9026 0.9040 0.9054
1183.000000 0.9078 0.9098 0.9118 0.9136 0.9154
1188.000000 0.9159 0.9165 0.9170 0.9169 0.9169
1193.000000 0.9169 0.9167 0.9166 0.9164 0.9163
1198.000000 0.9162 0.9162 0.9162 0.9162 0.9162
1203.000000 0.9162 0.9163 0.9166 0.9169 0.9172
1208.000000 0.9177 0.9182 0.9188 0.9187 0.9182
1213.000000 0.9169 0.9157 0.9144 0.9132 0.9123
1218.000000 0.9124 0.9124 0.9125 0.9127 0.9131
1223.000000 0.9134 0.9139 0.9146 0.9153 0.9161
1228.000000 0.9166 0.9169 0.9171 0.9171 0.9165
1233.000000 0.9160 0.9146 0.9124 0.9086 0.9033
1238.000000 0.8964 0.8856 0.8690 0.8463 0.8287
1243.000000 0.8012 0.7812 0.7655 0.7505 0.7347
1248.000000 0.6958 0.6181 0.5404 0.4627 0.3850
1253.000000 0.3073 0.1882 0.1013 0.0834 0.0595
1258.000000 0.0467 0.0424 0.0447 0.0437 0.0493
1263.000000 0.0633 0.0916 0.0998 0.0827 0.0674
1268.000000 0.0796 0.2187 0.3350 0.3335 0.2092
1273.000000 0.1127 0.0343 0.0311 0.0315 0.0335
1278.000000 0.0401 0.0683 0.0974 0.1266 0.2547
1283.000000 0.3226 0.3923 0.4621 0.5318 0.6015
1288.000000 0.6712 0.7410 0.8107 0.8719 0.8783
1293.000000 0.8850 0.8898 0.8928 0.8939 0.8948
1298.000000 0.8955 0.8956 0.8957 0.8955 0.8952
1303.000000 0.8950 0.8947 0.8946 0.8946 0.8965
1308.000000 0.8946 0.8950 0.8954 0.8960 0.8966
1313.000000 0.8973 0.8979 0.8982 0.8983 0.8985
1318.000000 0.8982 0.8978 0.8975 0.8973 0.8971
1323.000000 0.8969 0.8969 0.8968 0.8968 0.8967
1328.000000 0.8967 0.8966 0.8965 0.8965 0.8965
1333.000000 0.8965 0.8965 0.8965 0.8965 0.8970
1338.000000 0.8975 0.8980 0.8965 0.8949 0.8939
1343.000000 0.8938 0.8938 0.8938 0.8938 0.8940
1348.000000 0.8944 0.8949 0.8957 0.8970 0.8982
1353.000000 0.8994 0.9010 0.9025 0.9036 0.9045
1358.000000 0.9049 0.9046 0.9043 0.9034 0.9021
1363.000000 0.9007 0.8991 0.8975 0.8958 0.8941
1368.000000 0.8926 0.8913 0.8900 0.8887 0.8874
1373.000000 0.8864 0.8854 0.8844 0.8834 0.8827
1378.000000 0.8820 0.8814 0.8808 0.8801 0.8795
1383.000000 0.8788 0.8784 0.8781 0.8778 0.8775
1388.000000 0.8772 0.8769 0.8765 0.8762 0.8759
1393.000000 0.8757 0.8755 0.8753 0.8752 0.8750
1398.000000 0.8748 0.8746 0.8747 0.8747 0.8748
1403.000000 0.8748 0.8749 0.8749 0.8750 0.8750
1408.000000 0.8751 0.8751 0.8752 0.8752 0.8753
1413.000000 0.8753 0.8754 0.8753 0.8752 0.8751
1418.000000 0.8749 0.8748 0.8747 0.8746 0.8741
1423.000000 0.8731 0.8722 0.8712 0.8706 0.8701
1428.000000 0.8696 0.8692 0.8694 0.8697 0.8699
1433.000000 0.8700 0.8701 0.8702 0.8703 0.8694
1438.000000 0.8681 0.8660 0.8629 0.8599 0.8573
1443.000000 0.8547 0.8513 0.8478 0.8439 0.8400
1448.000000 0.8363 0.8329 0.8295 0.8262 0.8221
1453.000000 0.8177 0.8133 0.8089 0.8057 0.8029
1458.000000 0.8000 0.7975 0.7954 0.7933 0.7913
1463.000000 0.7892 0.7844 0.7809 0.7868 0.8008
1468.000000 0.8131 0.8128 0.8115 0.7885 0.7919
1473.000000 0.8042 0.7944 0.7832 0.7843 0.7960
1478.000000 0.8014 0.8039 0.8101 0.8278 0.8455
1483.000000 0.8632 0.8769 0.8797 0.8817 0.8831
1488.000000 0.8840 0.8849 0.8850 0.8847 0.8844
1493.000000 0.8846 0.8857 0.8864 0.8861 0.8861
1498.000000 0.8850 0.8841 0.8833 0.8826 0.8822
1503.000000 0.8822 0.8849 0.8925 0.9012 0.9062
1508.000000 0.9068 0.8991 0.8913 0.8899 0.8897
1513.000000 0.8896 0.8896 0.8896 0.8896 0.8894
1518.000000 0.8892 0.8890 0.8887 0.8885 0.8881
1523.000000 0.8876 0.8871 0.8865 0.8860 0.8855
1528.000000 0.8851 0.8846 0.8841 0.8836 0.8832
1533.000000 0.8831 0.8829 0.8827 0.8836 0.8857
1538.000000 0.8871 0.8868 0.8864 0.8861 0.8857
1543.000000 0.8854 0.8850 0.8846 0.8840 0.8835
1548.000000 0.8830 0.8825 0.8820 0.8813 0.8807
1553.000000 0.8799 0.8791 0.8784 0.8782 0.8804
1558.000000 0.8829 0.8889 0.8930 0.8936 0.8898
1563.000000 0.8842 0.8837 0.8840 0.8849 0.8860
1568.000000 0.8874 0.8894 0.8910 0.8908 0.8902
1573.000000 0.8895 0.8889 0.8882 0.8874 0.8866
1578.000000 0.8858 0.8851 0.8846 0.8842 0.8838
1583.000000 0.8833 0.8829 0.8824 0.8819 0.8814
1588.000000 0.8809 0.8805 0.8807 0.8812 0.8817
1593.000000 0.8821 0.8829 0.8837 0.8845 0.8853
1598.000000 0.8861 0.8861 0.8857 0.8853 0.8849
1603.000000 0.8843 0.8837 0.8833 0.8830 0.8826
1608.000000 0.8822 0.8817 0.8812 0.8808 0.8803
1613.000000 0.8798 0.8810 0.8826 0.8841 0.8856
1618.000000 0.8871 0.8864 0.8850 0.8837 0.8823
1623.000000 0.8811 0.8803 0.8794 0.8785 0.8776
1628.000000 0.8765 0.8753 0.8759 0.8770 0.8781
1633.000000 0.8801 0.8822 0.8833 0.8827 0.8803
1638.000000 0.8781 0.8763 0.8749 0.8735 0.8726
1643.000000 0.8724 0.8723 0.8725 0.8725 0.8708
1648.000000 0.8688 0.8722 0.8763 0.8796 0.8827
1653.000000 0.8841 0.8830 0.8797 0.8780 0.8769
1658.000000 0.8767 0.8766 0.8771 0.8778 0.8786
1663.000000 0.8791 0.8787 0.8790 0.8808 0.8828
1668.000000 0.8849 0.8844 0.8837 0.8838 0.8843
1673.000000 0.8847 0.8849 0.8848 0.8844 0.8832
1678.000000 0.8819 0.8810 0.8801 0.8807 0.8849
1683.000000 0.8898 0.8927 0.8930 0.8914 0.8895
1688.000000 0.8875 0.8854 0.8845 0.8839 0.8835
1693.000000 0.8841 0.8855 0.8866 0.8876 0.8886
1698.000000 0.8895 0.8897 0.8897 0.8885 0.8870
1703.000000 0.8854 0.8846 0.8841 0.8837 0.8834
1708.000000 0.8831 0.8832 0.8833 0.8839 0.8851
1713.000000 0.8866 0.8886 0.8907 0.8930 0.8953
1718.000000 0.8947 0.8913 0.8886 0.8866 0.8846
1723.000000 0.8835 0.8834 0.8834 0.8834 0.8834
1728.000000 0.8834 0.8841 0.8848 0.8863 0.8881
1733.000000 0.8911 0.8907 0.8893 0.8877 0.8838
1738.000000 0.8838 0.8838 0.8838 0.8838 0.8839
1743.000000 0.8840 0.8841 0.8840 0.8838 0.8837
1748.000000 0.8835 0.8833 0.8830 0.8828 0.8826
1753.000000 0.8824 0.8822 0.8819 0.8817 0.8815
1758.000000 0.8814 0.8812 0.8810 0.8808 0.8806
1763.000000 0.8805 0.8803 0.8802 0.8801 0.8801
1768.000000 0.8800 0.8800 0.8799 0.8799 0.8798
1773.000000 0.8798 0.8797 0.8797 0.8797 0.8796
1778.000000 0.8795 0.8795 0.8795 0.8794 0.8795
1783.000000 0.8795 0.8796 0.8796 0.8797 0.8797
1788.000000 0.8798 0.8798 0.8798 0.8799 0.8799
1793.000000 0.8800 0.8800 0.8801 0.8801 0.8802
1798.000000 0.8802 0.8802 0.8803 0.8803 0.8804
1803.000000 0.8804 0.8805 0.8805 0.8805 0.8805
1808.000000 0.8805 0.8805 0.8805 0.8805 0.8805
1813.000000 0.8805 0.8805 0.8805 0.8805 0.8805
1818.000000 0.8805 0.8805 0.8805 0.8805 0.8806
1823.000000 0.8806 0.8806 0.8806 0.8806 0.8806
1828.000000 0.8806 0.8807 0.8807 0.8807 0.8807
1833.000000 0.8807 0.8807 0.8807 0.8808 0.8808
1838.000000 0.8808 0.8808 0.8808 0.8808 0.8808
1843.000000 0.8809 0.8809 0.8809 0.8810 0.8811
1848.000000 0.8812 0.8812 0.8812 0.8811 0.8810
1853.000000 0.8809 0.8808 0.8807 0.8806 0.8805
1858.000000 0.8804 0.8803 0.8802 0.8801 0.8801
1863.000000 0.8801 0.8802 0.8802 0.8803 0.8803
1868.000000 0.8804 0.8803 0.8801 0.8798 0.8795
1873.000000 0.8793 0.8790 0.8789 0.8789 0.8789
1878.000000 0.8789 0.8789 0.8789 0.8789 0.8791
1883.000000 0.8793 0.8796 0.8799 0.8802 0.8803
1888.000000 0.8799 0.8794 0.8789 0.8790 0.8792
1893.000000 0.8794 0.8795 0.8796 0.8795 0.8795
1898.000000 0.8795 0.8794 0.8794 0.8793 0.8793
1903.000000 0.8793 0.8792 0.8791 0.8789 0.8788
1908.000000 0.8786 0.8785 0.8783 0.8782 0.8781
1913.000000 0.8779 0.8777 0.8775 0.8773 0.8777
1918.000000 0.8783 0.8787 0.8790 0.8794 0.8798
1923.000000 0.8800 0.8802 0.8804 0.8805 0.8807
1928.000000 0.8807 0.8806 0.8806 0.8805 0.8804
1933.000000 0.8804 0.8803 0.8802 0.8802 0.8801
1938.000000 0.8800 0.8800 0.8799 0.8798 0.8797
1943.000000 0.8796 0.8795 0.8794 0.8793 0.8792
1948.000000 0.8791 0.8790 0.8789 0.8788 0.8788
1953.000000 0.8788 0.8789 0.8789 0.8790 0.8790
1958.000000 0.8790 0.8791 0.8788 0.8782 0.8776
1963.000000 0.8771 0.8765 0.8765 0.8766 0.8768
1968.000000 0.8769 0.8770 0.8771 0.8772 0.8773
1973.000000 0.8774 0.8775 0.8775 0.8774 0.8773
1978.000000 0.8772 0.8768 0.8764 0.8759 0.8755
1983.000000 0.8751 0.8746 0.8742 0.8739 0.8736
1988.000000 0.8748 0.8760 0.8769 0.8778 0.8786
1993.000000 0.8793 0.8793 0.8791 0.8789 0.8787
1998.000000 0.8785 0.8784 0.8782 0.8780 0.8778
2003.000000 0.8777 0.8777 0.8774 0.8772 0.8759
2008.000000 0.8746 0.8740 0.8735 0.8738 0.8742
2013.000000 0.8747 0.8752 0.8764 0.8776 0.8785
2018.000000 0.8794 0.8794 0.8794 0.8794 0.8794
2023.000000 0.8794 0.8794 0.8793 0.8793 0.8792
2028.000000 0.8791 0.8790 0.8789 0.8788 0.8787
2033.000000 0.8785 0.8784 0.8783 0.8782 0.8780
2038.000000 0.8779 0.8778 0.8777 0.8775 0.8774
2043.000000 0.8773 0.8772 0.8765 0.8758 0.8748
2048.000000 0.8739 0.8730 0.8722 0.8716 0.8711
2053.000000 0.8706 0.8701 0.8701 0.8701 0.8703
2058.000000 0.8706 0.8710 0.8714 0.8718 0.8722
2063.000000 0.8725 0.8729 0.8732 0.8736 0.8736
2068.000000 0.8736 0.8736 0.8736 0.8736 0.8736
2073.000000 0.8734 0.8732 0.8728 0.8724 0.8727
2078.000000 0.8730 0.8734 0.8738 0.8741 0.8745
2083.000000 0.8750 0.8755 0.8763 0.8771 0.8778
2088.000000 0.8786 0.8789 0.8793 0.8795 0.8797
2093.000000 0.8799 0.8801 0.8803 0.8805 0.8807
2098.000000 0.8809 0.8810 0.8812 0.8812 0.8813
2103.000000 0.8813 0.8813 0.8813 0.8813 0.8813
2108.000000 0.8813 0.8813 0.8813 0.8813 0.8813
2113.000000 0.8813 0.8813 0.8813 0.8813 0.8812
2118.000000 0.8811 0.8809 0.8808 0.8807 0.8806
2123.000000 0.8805 0.8804 0.8802 0.8801 0.8800
2128.000000 0.8799 0.8798 0.8797 0.8795 0.8794
2133.000000 0.8793 0.8792 0.8791 0.8790 0.8788
2138.000000 0.8787 0.8786 0.8785 0.8784 0.8783
2143.000000 0.8782 0.8781 0.8780 0.8779 0.8777
2148.000000 0.8776 0.8775 0.8774 0.8773 0.8772
2153.000000 0.8771 0.8770 0.8768 0.8767 0.8766
2158.000000 0.8765 0.8764 0.8763 0.8762 0.8761
2163.000000 0.8760 0.8759 0.8758 0.8757 0.8756
2168.000000 0.8755 0.8754 0.8753 0.8752 0.8751
2173.000000 0.8750 0.8749 0.8748 0.8747 0.8746
2178.000000 0.8745 0.8744 0.8743 0.8742 0.8741
2183.000000 0.8740 0.8739 0.8741 0.8744 0.8749
2188.000000 0.8755 0.8760 0.8766 0.8771 0.8776
2193.000000 0.8779 0.8782 0.8784 0.8786 0.8787
2198.000000 0.8789 0.8791 0.8793 0.8794 0.8796
2203.000000 0.8797 0.8798 0.8798 0.8799 0.8799
2208.000000 0.8800 0.8800 0.8801 0.8802 0.8803
2213.000000 0.8803 0.8804 0.8804 0.8805 0.8805
2218.000000 0.8806 0.8806 0.8806 0.8806 0.8807
2223.000000 0.8807 0.8808 0.8807 0.8807 0.8807
2228.000000 0.8807 0.8806 0.8806 0.8805 0.8805
2233.000000 0.8804 0.8804 0.8803 0.8803 0.8802
2238.000000 0.8802 0.8801 0.8801 0.8800 0.8800
2243.000000 0.8800 0.8801 0.8802 0.8804 0.8805
2248.000000 0.8806 0.8807 0.8808 0.8809 0.8810
2253.000000 0.8811 0.8812 0.8812 0.8812 0.8812
2258.000000 0.8812 0.8812 0.8812 0.8811 0.8811
2263.000000 0.8809 0.8807 0.8805 0.8804 0.8802
2268.000000 0.8800 0.8798 0.8796 0.8794 0.8792
2273.000000 0.8790 0.8788 0.8786 0.8785 0.8783
2278.000000 0.8781 0.8779 0.8778 0.8775 0.8773
2283.000000 0.8769 0.8765 0.8761 0.8757 0.8753
2288.000000 0.8749 0.8743 0.8737 0.8728 0.8720
2293.000000 0.8711 0.8702 0.8693 0.8685 0.8676
2298.000000 0.8667 0.8658 0.8649 0.8643 0.8637
2303.000000 0.8638 0.8640 0.8640 0.8640 0.8642
2308.000000 0.8644 0.8647 0.8651 0.8653 0.8655
2313.000000 0.8657 0.8659 0.8629 0.8600 0.8566
2318.000000 0.8532 0.8500 0.8468 0.8463 0.8477
2323.000000 0.8500 0.8543 0.8588 0.8633 0.8663
2328.000000 0.8694 0.8706 0.8718 0.8726 0.8734
2333.000000 0.8739 0.8745 0.8750 0.8755 0.8759
2338.000000 0.8763 0.8766 0.8770 0.8773 0.8777
2343.000000 0.8782 0.8787 0.8792 0.8797 0.8803
2348.000000 0.8809 0.8815 0.8821 0.8827 0.8834
2353.000000 0.8840 0.8846 0.8852 0.8858 0.8864
2358.000000 0.8870 0.8876 0.8883 0.8889 0.8895
2363.000000 0.8898 0.8901 0.8902 0.8904 0.8902
2368.000000 0.8901 0.8900 0.8899 0.8898 0.8897
2373.000000 0.8895 0.8893 0.8890 0.8887 0.8884
2378.000000 0.8882 0.8880 0.8878 0.8876 0.8875
2383.000000 0.8873 0.8872 0.8869 0.8867 0.8864
2388.000000 0.8862 0.8860 0.8858 0.8855 0.8853
2393.000000 0.8851 0.8849 0.8846 0.8844 0.8841
2398.000000 0.8839 0.8837 0.8835 0.8832 0.8830
2403.000000 0.8827 0.8824 0.8820 0.8817 0.8814
2408.000000 0.8811 0.8807 0.8804 0.8802 0.8800
2413.000000 0.8798 0.8797 0.8795 0.8793 0.8792
2418.000000 0.8791 0.8790 0.8790 0.8789 0.8789
2423.000000 0.8789 0.8789 0.8788 0.8788 0.8787
2428.000000 0.8787 0.8787 0.8788 0.8790 0.8792
2433.000000 0.8794 0.8796 0.8798 0.8800 0.8801
2438.000000 0.8803 0.8804 0.8806 0.8807 0.8808
2443.000000 0.8809 0.8810 0.8811 0.8813 0.8813
2448.000000 0.8814 0.8814 0.8815 0.8815 0.8816
2453.000000 0.8817 0.8818 0.8819 0.8820 0.8821
2458.000000 0.8823 0.8824 0.8826 0.8827 0.8829
2463.000000 0.8830 0.8832 0.8833 0.8834 0.8834
2468.000000 0.8834 0.8834 0.8835 0.8835 0.8836
2473.000000 0.8836 0.8837 0.8838 0.8839 0.8841
2478.000000 0.8843 0.8845 0.8847 0.8848 0.8850
2483.000000 0.8851 0.8852 0.8851 0.8850 0.8849
2488.000000 0.8849 0.8849 0.8849 0.8849 0.8849
2493.000000 0.8849 0.8849 0.8849 0.8849 0.8850
2498.000000 0.8851 0.8852 0.8853 0.8853 0.8854
2503.000000 0.8855 0.8856 0.8855 0.8854 0.8852
2508.000000 0.8850 0.8848 0.8846 0.8845 0.8844
2513.000000 0.8843 0.8842 0.8841 0.8841 0.8840
2518.000000 0.8840 0.8839 0.8839 0.8838 0.8837
2523.000000 0.8836 0.8817 0.8835 0.8835 0.8834
2528.000000 0.8834 0.8833 0.8832 0.8831 0.8831
2533.000000 0.8830 0.8830 0.8829 0.8829 0.8829
2538.000000 0.8829 0.8829 0.8830 0.8830 0.8831
2543.000000 0.8831 0.8832 0.8833 0.8834 0.8834
2548.000000 0.8835 0.8835 0.8836 0.8836 0.8837
2553.000000 0.8837 0.8838 0.8838 0.8839 0.8839
2558.000000 0.8840 0.8841 0.8842 0.8842 0.8843
2563.000000 0.8843 0.8844 0.8845 0.8846 0.8847
2568.000000 0.8848 0.8849 0.8851 0.8852 0.8853
2573.000000 0.8854 0.8856 0.8856 0.8856 0.8856
2578.000000 0.8856 0.8856 0.8856 0.8856 0.8857
2583.000000 0.8857 0.8857 0.8857 0.8857 0.8857
2588.000000 0.8857 0.8857 0.8858 0.8858 0.8858
2593.000000 0.8858 0.8858 0.8858 0.8858 0.8858
2598.000000 0.8859 0.8859 0.8859 0.8859 0.8859
2603.000000 0.8859 0.8859 0.8858 0.8858 0.8858
2608.000000 0.8858 0.8857 0.8857 0.8857 0.8857
2613.000000 0.8856 0.8856 0.8856 0.8856 0.8855
2618.000000 0.8855 0.8855 0.8855 0.8854 0.8854
2623.000000 0.8854 0.8854 0.8853 0.8853 0.8853
2628.000000 0.8853 0.8852 0.8852 0.8852 0.8852
2633.000000 0.8851 0.8851 0.8850 0.8849 0.8848
2638.000000 0.8847 0.8846 0.8846 0.8845 0.8844
2643.000000 0.8843 0.8842 0.8841 0.8840 0.8839
2648.000000 0.8839 0.8838 0.8837 0.8836 0.8835
2653.000000 0.8834 0.8833 0.8832 0.8832 0.8830
2658.000000 0.8828 0.8826 0.8824 0.8822 0.8820
2663.000000 0.8818 0.8816 0.8814 0.8812 0.8807
2668.000000 0.8802 0.8796 0.8791 0.8786 0.8781
2673.000000 0.8775 0.8770 0.8764 0.8759 0.8751
2678.000000 0.8744 0.8736 0.8728 0.8720 0.8712
2683.000000 0.8702 0.8693 0.8679 0.8666 0.8645
2688.000000 0.8625 0.8594 0.8564 0.8548 0.8533
2693.000000 0.8534 0.8536 0.8542 0.8548 0.8556
2698.000000 0.8564 0.8571 0.8578 0.8584 0.8590
2703.000000 0.8563 0.8536 0.8494 0.8452 0.8453
2708.000000 0.8435 0.8480 0.8507 0.8537 0.8568
2713.000000 0.8599 0.8630 0.8661 0.8692 0.8720
2718.000000 0.8749 0.8765 0.8781 0.8791 0.8801
2723.000000 0.8809 0.8818 0.8822 0.8827 0.8827
2728.000000 0.8827 0.8827 0.8827 0.8826 0.8826
2733.000000 0.8825 0.8824 0.8823 0.8822 0.8820
2738.000000 0.8819 0.8817 0.8816 0.8814 0.8812
2743.000000 0.8810 0.8809 0.8807 0.8805 0.8804
2748.000000 0.8804 0.8804 0.8804 0.8804 0.8804
2753.000000 0.8804 0.8804 0.8804 0.8804 0.8804
2758.000000 0.8805 0.8805 0.8806 0.8806 0.8806
2763.000000 0.8806 0.8807 0.8807 0.8808 0.8808
2768.000000 0.8809 0.8810 0.8811 0.8811 0.8812
2773.000000 0.8812 0.8813 0.8814 0.8815 0.8814
2778.000000 0.8814 0.8813 0.8813 0.8812 0.8812
2783.000000 0.8811 0.8811 0.8810 0.8809 0.8807
2788.000000 0.8806 0.8805 0.8804 0.8802 0.8800
2793.000000 0.8798 0.8796 0.8794 0.8792 0.8790
2798.000000 0.8788 0.8786 0.8784 0.8781 0.8779
2803.000000 0.8776 0.8774 0.8772 0.8770 0.8767
2808.000000 0.8765 0.8762 0.8760 0.8757 0.8755
2813.000000 0.8752 0.8750 0.8748 0.8746 0.8744
2818.000000 0.8743 0.8741 0.8739 0.8737 0.8735
2823.000000 0.8733 0.8732 0.8730 0.8728 0.8726
2828.000000 0.8724 0.8722 0.8720 0.8718 0.8717
2833.000000 0.8716 0.8716 0.8715 0.8715 0.8714
2838.000000 0.8714 0.8717 0.8720 0.8723 0.8726
2843.000000 0.8731 0.8737 0.8742 0.8748 0.8753
2848.000000 0.8758 0.8761 0.8764 0.8764 0.8765
2853.000000 0.8760 0.8756 0.8751 0.8747 0.8740
2858.000000 0.8733 0.8726 0.8720 0.8713 0.8706
2863.000000 0.8706 0.8707 0.8708 0.8710 0.8711
2868.000000 0.8713 0.8714 0.8716 0.8718 0.8720
2873.000000 0.8721 0.8723 0.8724 0.8726 0.8727
2878.000000 0.8729 0.8730 0.8732 0.8734 0.8737
2883.000000 0.8739 0.8741 0.8743 0.8745 0.8747
2888.000000 0.8750 0.8752 0.8754 0.8759 0.8764
2893.000000 0.8770 0.8776 0.8782 0.8788 0.8794
2898.000000 0.8801 0.8807 0.8813 0.8819 0.8825
2903.000000 0.8832 0.8839 0.8846 0.8853 0.8860
2908.000000 0.8867 0.8874 0.8881 0.8887 0.8894
2913.000000 0.8896 0.8898 0.8897 0.8888 0.8893
2918.000000 0.8889 0.8884 0.8880 0.8875 0.8871
2923.000000 0.8865 0.8860 0.8854 0.8849 0.8840
2928.000000 0.8832 0.8821 0.8811 0.8800 0.8789
2933.000000 0.8777 0.8766 0.8754 0.8742 0.8729
2938.000000 0.8717 0.8705 0.8693 0.8680 0.8668
2943.000000 0.8651 0.8634 0.8615 0.8597 0.8578
2948.000000 0.8560 0.8527 0.8495 0.8461 0.8428
2953.000000 0.8394 0.8361 0.8319 0.8277 0.8229
2958.000000 0.8181 0.8133 0.8085 0.8033 0.7982
2963.000000 0.7929 0.7876 0.7823 0.7770 0.7719
2968.000000 0.7669 0.7618 0.7568 0.7499 0.7430
2973.000000 0.7341 0.7252 0.7147 0.7042 0.6828
2978.000000 0.6614 0.6548 0.6482 0.6416 0.6350
2983.000000 0.6295 0.6240 0.6190 0.6140 0.6107
2988.000000 0.6074 0.6055 0.6036 0.6034 0.6033
2993.000000 0.6038 0.6019 0.6060 0.6078 0.6194
2998.000000 0.6311 0.6516 0.6722 0.6920 0.7119
3003.000000 0.7002 0.7119 0.6635 0.6386 0.6147
3008.000000 0.5909 0.5903 0.5898 0.5976 0.5890
3013.000000 0.6139 0.6225 0.6310 0.6396 0.6481
3018.000000 0.6566 0.6651 0.6737 0.6822 0.6908
3023.000000 0.6990 0.7072 0.7099 0.7126 0.7146
3028.000000 0.7167 0.7207 0.7247 0.7337 0.7428
3033.000000 0.7509 0.7591 0.7672 0.7754 0.7821
3038.000000 0.7889 0.7946 0.8004 0.8048 0.8092
3043.000000 0.8124 0.8156 0.8188 0.8221 0.8240
3048.000000 0.8260 0.8279 0.8299 0.8318 0.8338
3053.000000 0.8363 0.8389 0.8415 0.8442 0.8457
3058.000000 0.8473 0.8488 0.8503 0.8515 0.8527
3063.000000 0.8537 0.8548 0.8558 0.8569 0.8573
3068.000000 0.8578 0.8583 0.8588 0.8593 0.8598
3073.000000 0.8602 0.8607 0.8610 0.8613 0.8615
3078.000000 0.8618 0.8620 0.8623 0.8623 0.8624
3083.000000 0.8625 0.8626 0.8626 0.8627 0.8628
3088.000000 0.8629 0.8629 0.8630 0.8631 0.8632
3093.000000 0.8632 0.8633 0.8633 0.8634 0.8634
3098.000000 0.8635 0.8635 0.8636 0.8636 0.8637
3103.000000 0.8637 0.8638 0.8638 0.8639 0.8639
3108.000000 0.8640 0.8640 0.8640 0.8640 0.8641
3113.000000 0.8641 0.8641 0.8641 0.8641 0.8641
3118.000000 0.8641 0.8641 0.8641 0.8636 0.8631
3123.000000 0.8625 0.8619 0.8613 0.8607 0.8603
3128.000000 0.8599 0.8599 0.8600 0.8601 0.8602
3133.000000 0.8603 0.8604 0.8606 0.8609 0.8615
3138.000000 0.8622 0.8629 0.8636 0.8642 0.8649
3143.000000 0.8651 0.8653 0.8654 0.8656 0.8657
3148.000000 0.8658 0.8659 0.8660 0.8660 0.8661
3153.000000 0.8662 0.8663 0.8663 0.8664 0.8665
3158.000000 0.8666 0.8667 0.8668 0.8668 0.8669
3163.000000 0.8670 0.8671 0.8671 0.8672 0.8673
3168.000000 0.8674 0.8674 0.8675 0.8675 0.8676
3173.000000 0.8676 0.8676 0.8676 0.8676 0.8676
3178.000000 0.8676 0.8676 0.8676 0.8676 0.8676
3183.000000 0.8676 0.8676 0.8675 0.8675 0.8675
3188.000000 0.8675 0.8675 0.8675 0.8674 0.8674
3193.000000 0.8674 0.8674 0.8674 0.8674 0.8673
3198.000000 0.8673 0.8673 0.8673 0.8673 0.8673
3203.000000 0.8672 0.8672 0.8672 0.8672 0.8672
3208.000000 0.8672 0.8672 0.8672 0.8672 0.8672
3213.000000 0.8672 0.8672 0.8672 0.8673 0.8673
3218.000000 0.8673 0.8673 0.8673 0.8673 0.8674
3223.000000 0.8674 0.8674 0.8674 0.8674 0.8674
3228.000000 0.8674 0.8674 0.8675 0.8675 0.8675
3233.000000 0.8674 0.8674 0.8673 0.8673 0.8672
3238.000000 0.8671 0.8670 0.8669 0.8668 0.8668
3243.000000 0.8667 0.8666 0.8665 0.8664 0.8663
3248.000000 0.8663 0.8662 0.8661 0.8660 0.8659
3253.000000 0.8658 0.8658 0.8657 0.8656 0.8655
3258.000000 0.8654 0.8653 0.8653 0.8652 0.8651
3263.000000 0.8650 0.8650 0.8649 0.8648 0.8647
3268.000000 0.8647 0.8647 0.8647 0.8647 0.8647
3273.000000 0.8646 0.8646 0.8646 0.8646 0.8646
3278.000000 0.8646 0.8645 0.8645 0.8645 0.8645
3283.000000 0.8645 0.8645 0.8644 0.8644 0.8644
3288.000000 0.8644 0.8644 0.8644 0.8643 0.8643
3293.000000 0.8642 0.8642 0.8641 0.8641 0.8640
3298.000000 0.8640 0.8639 0.8639 0.8638 0.8638
3303.000000 0.8637 0.8637 0.8636 0.8636 0.8636
3308.000000 0.8636 0.8636 0.8637 0.8637 0.8638
3313.000000 0.8638 0.8638 0.8638 0.8639 0.8639
3318.000000 0.8639 0.8649 0.8659 0.8671 0.8683
3323.000000 0.8685 0.8687 0.8678 0.8669 0.8660
3328.000000 0.8651 0.8644 0.8637 0.8634 0.8631
3333.000000 0.8629 0.8627 0.8625 0.8624 0.8622
3338.000000 0.8620 0.8620 0.8620 0.8620 0.8620
3343.000000 0.8620 0.8620 0.8619 0.8619 0.8618
3348.000000 0.8618 0.8618 0.8618 0.8617 0.8617
3353.000000 0.8616 0.8616 0.8616 0.8616 0.8616
3358.000000 0.8616 0.8616 0.8616 0.8616 0.8616
3363.000000 0.8616 0.8616 0.8616 0.8616 0.8616
3368.000000 0.8616 0.8616 0.8616 0.8616 0.8616
3373.000000 0.8616 0.8616 0.8616 0.8616 0.8616
3378.000000 0.8616 0.8616 0.8616 0.8616 0.8617
3383.000000 0.8617 0.8618 0.8618 0.8619 0.8619
3388.000000 0.8620 0.8620 0.8621 0.8621 0.8622
3393.000000 0.8622 0.8623 0.8623 0.8624 0.8625
3398.000000 0.8626 0.8627 0.8628 0.8629 0.8630
3403.000000 0.8631 0.8632 0.8633 0.8634 0.8635
3408.000000 0.8636 0.8637 0.8638 0.8639 0.8640
3413.000000 0.8641 0.8642 0.8644 0.8646 0.8649
3418.000000 0.8653 0.8656 0.8660 0.8663 0.8667
3423.000000 0.8670 0.8674 0.8677 0.8681 0.8685
3428.000000 0.8690 0.8694 0.8698 0.8705 0.8712
3433.000000 0.8720 0.8728 0.8725 0.8722 0.8719
3438.000000 0.8716 0.8707 0.8699 0.8690 0.8682
3443.000000 0.8673 0.8664 0.8655 0.8646 0.8645
3448.000000 0.8645 0.8646 0.8648 0.8650 0.8652
3453.000000 0.8654 0.8656 0.8658 0.8660 0.8662
3458.000000 0.8664 0.8666 0.8668 0.8670 0.8672
3463.000000 0.8673 0.8675 0.8676 0.8678 0.8679
3468.000000 0.8681 0.8682 0.8684 0.8685 0.8687
3473.000000 0.8688 0.8690 0.8691 0.8693 0.8694
3478.000000 0.8696 0.8697 0.8699 0.8700 0.8702
3483.000000 0.8703 0.8704 0.8705 0.8707 0.8708
3488.000000 0.8710 0.8711 0.8713 0.8715 0.8717
3493.000000 0.8719 0.8721 0.8722 0.8724 0.8726
3498.000000 0.8728 0.8729 0.8731 0.8733 0.8735
3503.000000 0.8737 0.8739 0.8740 0.8742 0.8744
3508.000000 0.8746 0.8747 0.8749 0.8751 0.8753
3513.000000 0.8753 0.8754 0.8754 0.8754 0.8753
3518.000000 0.8753 0.8752 0.8752 0.8752 0.8752
3523.000000 0.8751 0.8751 0.8751 0.8751 0.8749
3528.000000 0.8747 0.8745 0.8743 0.8741 0.8739
3533.000000 0.8739 0.8723 0.8740 0.8741 0.8741
3538.000000 0.8742 0.8742 0.8743 0.8744 0.8746
3543.000000 0.8747 0.8749 0.8750 0.8752 0.8753
3548.000000 0.8755 0.8756 0.8758 0.8759 0.8761
3553.000000 0.8763 0.8765 0.8767 0.8769 0.8771
3558.000000 0.8773 0.8775 0.8777 0.8774 0.8772
3563.000000 0.8769 0.8767 0.8763 0.8759 0.8748
3568.000000 0.8737 0.8732 0.8727 0.8724 0.8722
3573.000000 0.8719 0.8717 0.8717 0.8717 0.8728
3578.000000 0.8739 0.8756 0.8774 0.8784 0.8794
3583.000000 0.8795 0.8797 0.8797 0.8797 0.8797
3588.000000 0.8797 0.8797 0.8797 0.8797 0.8798
3593.000000 0.8798 0.8799 0.8800 0.8801 0.8801
3598.000000 0.8802 0.8802 0.8803 0.8803 0.8804
3603.000000 0.8802 0.8800 0.8797 0.8795 0.8793
3608.000000 0.8791 0.8789 0.8787 0.8785 0.8783
3613.000000 0.8780 0.8778 0.8780 0.8783 0.8788
3618.000000 0.8794 0.8796 0.8799 0.8798 0.8797
3623.000000 0.8796 0.8796 0.8796 0.8796 0.8796
3628.000000 0.8796 0.8800 0.8804 0.8811 0.8818
3633.000000 0.8823 0.8828 0.8829 0.8830 0.8828
3638.000000 0.8826 0.8823 0.8821 0.8815 0.8810
3643.000000 0.8804 0.8799 0.8793 0.8788 0.8782
3648.000000 0.8777 0.8773 0.8770 0.8766 0.8763
3653.000000 0.8760 0.8758 0.8764 0.8770 0.8787
3658.000000 0.8804 0.8815 0.8826 0.8828 0.8830
3663.000000 0.8829 0.8828 0.8821 0.8814 0.8803
3668.000000 0.8793 0.8785 0.8778 0.8770 0.8763
3673.000000 0.8757 0.8752 0.8750 0.8748 0.8745
3678.000000 0.8743 0.8734 0.8725 0.8711 0.8697
3683.000000 0.8695 0.8694 0.8696 0.8698 0.8703
3688.000000 0.8708 0.8714 0.8720 0.8725 0.8731
3693.000000 0.8734 0.8737 0.8739 0.8742 0.8744
3698.000000 0.8746 0.8746 0.8746 0.8742 0.8739
3703.000000 0.8735 0.8732 0.8729 0.8726 0.8726
3708.000000 0.8726 0.8726 0.8726 0.8728 0.8730
3713.000000 0.8734 0.8738 0.8742 0.8746 0.8750
3718.000000 0.8754 0.8758 0.8762 0.8766 0.8770
3723.000000 0.8773 0.8777 0.8780 0.8784 0.8785
3728.000000 0.8787 0.8788 0.8790 0.8791 0.8793
3733.000000 0.8793 0.8794 0.8790 0.8787 0.8783
3738.000000 0.8780 0.8776 0.8773 0.8765 0.8758
3743.000000 0.8750 0.8742 0.8733 0.8725 0.8722
3748.000000 0.8720 0.8719 0.8719 0.8718 0.8718
3753.000000 0.8719 0.8720 0.8720 0.8721 0.8722
3758.000000 0.8724 0.8725 0.8727 0.8728 0.8729
3763.000000 0.8730 0.8732 0.8733 0.8735 0.8736
3768.000000 0.8737 0.8738 0.8740 0.8741 0.8742
3773.000000 0.8743 0.8744
##END=
