##TITLE=Ethane, iodo-
##JCAMP-DX=4.24
##DATA TYPE=INFRARED SPECTRUM
##CLASS=COBLENTZ
##ORIGIN=DOW CHEMICAL COMPANY
##OWNER=Copyright (C) 1987 by the Coblentz Society
Collection (C) 2018 copyright by the U.S. Secretary of Commerce
on behalf of the United States of America. All rights reserved.
##DATE=1964
##NAMES=1-iodoethane
ETHYL IODIDE
##CAS REGISTRY NO=75-03-6
##MOLFORM=C2 H5 I
##SOURCE REFERENCE=COBLENTZ NO. 8838
##$NIST SOURCE=COBLENTZ
##$NIST IMAGE=cob8838
##SPECTROMETER/DATA SYSTEM=DOW KBr FOREPRISM-GRATING
##INSTRUMENT PARAMETERS=GRATING CHANGED AT 5.0, 7.5, 15.0 MICRON
##STATE=GAS (50 mmHg, N2 ADDED, TOTAL PRESSURE 600 mmHg)
##PATH LENGTH=5 CM
$$ SPECTRAL CONTAMINATIONS DUE TO UNKNOWNS AROUND 1392, 1377 AND 715 CM^-^1
$$ ROTATIONAL FEATURES DUE TO H2O VAPOR AROUND 1600 CM^-^1 REGION
$$ SPECTRAL FEATURE AT 3024 CM^-^1 IS MOST LIKELY AN ARTIFACT
##SAMPLING PROCEDURE=TRANSMISSION
##RESOLUTION=2
##DATA PROCESSING=DIGITIZED BY COBLENTZ SOCIETY (BATCH II) FROM HARD COPY
##XUNITS=1/CM
##YUNITS=TRANSMITTANCE
##XFACTOR=1.0
##YFACTOR=1
##FIRSTX=460
##LASTX=3752
##FIRSTY=0.8565
##MAXX=3752
##MINX=460
##MAXY=0.8835
##MINY=0.0856
##NPOINTS=3293
##XYDATA=(X++(Y..Y))
460.000000 0.8565 0.8563 0.8560 0.8556 0.8548
465.000000 0.8541 0.8533 0.8526 0.8519 0.8513
470.000000 0.8506 0.8553 0.8495 0.8490 0.8485
475.000000 0.8479 0.8473 0.8462 0.8451 0.8440
480.000000 0.8429 0.8417 0.8403 0.8378 0.8354
485.000000 0.8330 0.8305 0.8276 0.8238 0.8201
490.000000 0.8163 0.8123 0.8070 0.8017 0.7963
495.000000 0.7903 0.7843 0.7756 0.7628 0.7440
500.000000 0.7208 0.7040 0.6943 0.6888 0.6877
505.000000 0.6880 0.6892 0.6914 0.6989 0.7064
510.000000 0.7106 0.7116 0.7125 0.7099 0.6988
515.000000 0.6913 0.6896 0.6846 0.6632 0.6450
520.000000 0.6410 0.6386 0.6397 0.6393 0.6687
525.000000 0.6988 0.7288 0.7588 0.7888 0.8181
530.000000 0.8291 0.8387 0.8433 0.8459 0.8474
535.000000 0.8483 0.8483 0.8483 0.8483 0.8483
540.000000 0.8483 0.8483 0.8483 0.8483 0.8483
545.000000 0.8484 0.8486 0.8489 0.8491 0.8493
550.000000 0.8495 0.8498 0.8500 0.8502 0.8504
555.000000 0.8507 0.8509 0.8511 0.8513 0.8515
560.000000 0.8518 0.8521 0.8524 0.8527 0.8531
565.000000 0.8534 0.8537 0.8540 0.8544 0.8547
570.000000 0.8550 0.8554 0.8557 0.8561 0.8564
575.000000 0.8568 0.8571 0.8575 0.8578 0.8582
580.000000 0.8585 0.8589 0.8592 0.8596 0.8599
585.000000 0.8603 0.8606 0.8609 0.8613 0.8616
590.000000 0.8619 0.8623 0.8626 0.8629 0.8633
595.000000 0.8635 0.8637 0.8639 0.8641 0.8644
600.000000 0.8646 0.8648 0.8650 0.8652 0.8654
605.000000 0.8656 0.8657 0.8658 0.8659 0.8692
610.000000 0.8660 0.8661 0.8662 0.8663 0.8663
615.000000 0.8664 0.8665 0.8666 0.8666 0.8667
620.000000 0.8668 0.8669 0.8669 0.8670 0.8671
625.000000 0.8672 0.8673 0.8673 0.8674 0.8675
630.000000 0.8676 0.8676 0.8677 0.8677 0.8677
635.000000 0.8678 0.8678 0.8679 0.8679 0.8679
640.000000 0.8680 0.8680 0.8680 0.8679 0.8679
645.000000 0.8678 0.8678 0.8677 0.8677 0.8677
650.000000 0.8676 0.8678 0.8680 0.8683 0.8685
655.000000 0.8687 0.8689 0.8691 0.8694 0.8696
660.000000 0.8698 0.8703 0.8711 0.8719 0.8727
665.000000 0.8734 0.8742 0.8750 0.8752 0.8751
670.000000 0.8749 0.8747 0.8744 0.8738 0.8732
675.000000 0.8726 0.8719 0.8713 0.8705 0.8698
680.000000 0.8691 0.8684 0.8677 0.8670 0.8663
685.000000 0.8656 0.8649 0.8642 0.8635 0.8628
690.000000 0.8621 0.8615 0.8608 0.8601 0.8595
695.000000 0.8588 0.8581 0.8574 0.8566 0.8558
700.000000 0.8551 0.8543 0.8536 0.8528 0.8521
705.000000 0.8511 0.8500 0.8488 0.8477 0.8465
710.000000 0.8437 0.8403 0.8239 0.7992 0.7746
715.000000 0.7681 0.7782 0.7946 0.8110 0.8274
720.000000 0.8278 0.8269 0.8255 0.8242 0.8229
725.000000 0.8217 0.8203 0.8184 0.8166 0.8149
730.000000 0.8133 0.8117 0.8101 0.8085 0.8070
735.000000 0.8056 0.8042 0.8029 0.8018 0.8007
740.000000 0.7982 0.7905 0.7828 0.7751 0.7677
745.000000 0.7711 0.7704 0.7797 0.7890 0.7983
750.000000 0.7998 0.8004 0.7999 0.7988 0.7977
755.000000 0.7970 0.7969 0.7972 0.7978 0.7990
760.000000 0.8002 0.8022 0.8042 0.8061 0.8079
765.000000 0.8097 0.8105 0.8108 0.8111 0.8116
770.000000 0.8120 0.8129 0.8141 0.8154 0.8168
775.000000 0.8183 0.8197 0.8212 0.8227 0.8252
780.000000 0.8280 0.8307 0.8341 0.8382 0.8424
785.000000 0.8462 0.8493 0.8512 0.8510 0.8508
790.000000 0.8507 0.8505 0.8502 0.8499 0.8496
795.000000 0.8493 0.8491 0.8490 0.8488 0.8486
800.000000 0.8485 0.8506 0.8546 0.8587 0.8625
805.000000 0.8655 0.8674 0.8683 0.8683 0.8683
810.000000 0.8683 0.8683 0.8683 0.8683 0.8683
815.000000 0.8684 0.8684 0.8685 0.8685 0.8686
820.000000 0.8687 0.8684 0.8682 0.8680 0.8678
825.000000 0.8676 0.8674 0.8672 0.8666 0.8660
830.000000 0.8653 0.8647 0.8640 0.8633 0.8634
835.000000 0.8636 0.8641 0.8649 0.8658 0.8666
840.000000 0.8674 0.8681 0.8689 0.8696 0.8702
845.000000 0.8709 0.8714 0.8718 0.8722 0.8726
850.000000 0.8730 0.8734 0.8738 0.8725 0.8742
855.000000 0.8744 0.8745 0.8746 0.8748 0.8749
860.000000 0.8750 0.8752 0.8752 0.8751 0.8751
865.000000 0.8751 0.8750 0.8750 0.8749 0.8749
870.000000 0.8748 0.8749 0.8751 0.8752 0.8753
875.000000 0.8755 0.8756 0.8757 0.8759 0.8760
880.000000 0.8759 0.8758 0.8756 0.8755 0.8754
885.000000 0.8753 0.8752 0.8751 0.8750 0.8749
890.000000 0.8748 0.8746 0.8744 0.8742 0.8740
895.000000 0.8738 0.8736 0.8734 0.8732 0.8730
900.000000 0.8728 0.8726 0.8724 0.8720 0.8717
905.000000 0.8713 0.8709 0.8705 0.8701 0.8697
910.000000 0.8693 0.8690 0.8686 0.8680 0.8674
915.000000 0.8668 0.8662 0.8656 0.8649 0.8640
920.000000 0.8631 0.8621 0.8612 0.8595 0.8575
925.000000 0.8550 0.8524 0.8497 0.8470 0.8430
930.000000 0.8377 0.8324 0.8269 0.8202 0.8136
935.000000 0.8069 0.8002 0.7926 0.7849 0.7777
940.000000 0.7708 0.7640 0.7572 0.7321 0.6942
945.000000 0.6712 0.6504 0.6364 0.6262 0.6181
950.000000 0.6123 0.6109 0.6104 0.6381 0.6433
955.000000 0.6433 0.6177 0.5912 0.5764 0.5740
960.000000 0.6758 0.6766 0.6503 0.6175 0.6134
965.000000 0.6107 0.6212 0.6258 0.6407 0.6752
970.000000 0.7098 0.7444 0.7790 0.8029 0.8116
975.000000 0.8208 0.8273 0.8295 0.8301 0.8307
980.000000 0.8308 0.8305 0.8299 0.8287 0.8274
985.000000 0.8267 0.8261 0.8254 0.8248 0.8242
990.000000 0.8246 0.8253 0.8266 0.8301 0.8338
995.000000 0.8382 0.8419 0.8440 0.8461 0.8474
1000.000000 0.8477 0.8480 0.8483 0.8486 0.8489
1005.000000 0.8492 0.8495 0.8498 0.8502 0.8505
1010.000000 0.8509 0.8519 0.8528 0.8538 0.8547
1015.000000 0.8557 0.8563 0.8569 0.8574 0.8580
1020.000000 0.8586 0.8594 0.8605 0.8616 0.8626
1025.000000 0.8637 0.8658 0.8681 0.8720 0.8750
1030.000000 0.8765 0.8780 0.8791 0.8794 0.8798
1035.000000 0.8801 0.8800 0.8799 0.8798 0.8797
1040.000000 0.8796 0.8795 0.8794 0.8792 0.8790
1045.000000 0.8788 0.8786 0.8784 0.8782 0.8783
1050.000000 0.8784 0.8785 0.8785 0.8784 0.8783
1055.000000 0.8783 0.8781 0.8780 0.8778 0.8776
1060.000000 0.8774 0.8769 0.8765 0.8760 0.8756
1065.000000 0.8751 0.8746 0.8742 0.8738 0.8735
1070.000000 0.8731 0.8728 0.8724 0.8720 0.8723
1075.000000 0.8727 0.8731 0.8739 0.8738 0.8743
1080.000000 0.8747 0.8751 0.8756 0.8760 0.8764
1085.000000 0.8769 0.8773 0.8777 0.8782 0.8785
1090.000000 0.8788 0.8791 0.8794 0.8797 0.8800
1095.000000 0.8801 0.8800 0.8800 0.8799 0.8799
1100.000000 0.8798 0.8798 0.8797 0.8795 0.8792
1105.000000 0.8790 0.8787 0.8784 0.8781 0.8779
1110.000000 0.8776 0.8773 0.8770 0.8767 0.8765
1115.000000 0.8762 0.8761 0.8759 0.8758 0.8757
1120.000000 0.8755 0.8754 0.8752 0.8751 0.8749
1125.000000 0.8745 0.8742 0.8739 0.8736 0.8733
1130.000000 0.8730 0.8727 0.8724 0.8721 0.8718
1135.000000 0.8715 0.8711 0.8707 0.8702 0.8698
1140.000000 0.8693 0.8688 0.8688 0.8688 0.8689
1145.000000 0.8690 0.8692 0.8694 0.8696 0.8697
1150.000000 0.8699 0.8700 0.8699 0.8698 0.8697
1155.000000 0.8697 0.8692 0.8681 0.8670 0.8651
1160.000000 0.8632 0.8612 0.8592 0.8563 0.8535
1165.000000 0.8506 0.8477 0.8447 0.8416 0.8386
1170.000000 0.8356 0.8311 0.8264 0.8218 0.8168
1175.000000 0.8108 0.8048 0.7988 0.7907 0.7822
1180.000000 0.7737 0.7646 0.7556 0.7465 0.7355
1185.000000 0.7221 0.7087 0.6849 0.6555 0.6188
1190.000000 0.5852 0.5576 0.5355 0.5034 0.4453
1195.000000 0.3845 0.3573 0.3229 0.2885 0.2541
1200.000000 0.2196 0.1852 0.1530 0.1385 0.1330
1205.000000 0.1355 0.1424 0.1466 0.1460 0.1457
1210.000000 0.1417 0.1353 0.1081 0.0974 0.0912
1215.000000 0.0883 0.0875 0.0870 0.0856 0.0877
1220.000000 0.1062 0.1309 0.1428 0.1533 0.1572
1225.000000 0.1607 0.1661 0.1818 0.2179 0.2533
1230.000000 0.2906 0.3301 0.3697 0.4092 0.4488
1235.000000 0.4883 0.5260 0.5428 0.5590 0.5671
1240.000000 0.5735 0.5799 0.5879 0.5978 0.6077
1245.000000 0.6240 0.6439 0.6594 0.6726 0.6868
1250.000000 0.7670 0.8003 0.8239 0.8282 0.8324
1255.000000 0.8336 0.8347 0.8359 0.8371 0.8382
1260.000000 0.8395 0.8408 0.8421 0.8434 0.8447
1265.000000 0.8460 0.8471 0.8482 0.8493 0.8504
1270.000000 0.8515 0.8527 0.8539 0.8552 0.8564
1275.000000 0.8576 0.8588 0.8598 0.8608 0.8618
1280.000000 0.8628 0.8637 0.8647 0.8654 0.8656
1285.000000 0.8658 0.8661 0.8663 0.8665 0.8667
1290.000000 0.8668 0.8668 0.8668 0.8665 0.8662
1295.000000 0.8659 0.8657 0.8654 0.8652 0.8664
1300.000000 0.8649 0.8648 0.8647 0.8645 0.8644
1305.000000 0.8642 0.8640 0.8638 0.8637 0.8635
1310.000000 0.8633 0.8632 0.8630 0.8627 0.8625
1315.000000 0.8622 0.8619 0.8617 0.8614 0.8611
1320.000000 0.8608 0.8604 0.8599 0.8595 0.8590
1325.000000 0.8586 0.8581 0.8572 0.8563 0.8554
1330.000000 0.8545 0.8536 0.8527 0.8518 0.8504
1335.000000 0.8482 0.8461 0.8439 0.8417 0.8394
1340.000000 0.8363 0.8332 0.8300 0.8269 0.8228
1345.000000 0.8186 0.8144 0.8102 0.8060 0.8018
1350.000000 0.7976 0.7916 0.7844 0.7773 0.7702
1355.000000 0.7633 0.7564 0.7460 0.7344 0.7256
1360.000000 0.7197 0.7138 0.7080 0.7020 0.6959
1365.000000 0.6898 0.6835 0.6769 0.6704 0.6638
1370.000000 0.6572 0.6525 0.6478 0.6440 0.6402
1375.000000 0.6369 0.6360 0.6362 0.6369 0.6381
1380.000000 0.6413 0.6469 0.6536 0.6583 0.6595
1385.000000 0.6599 0.6600 0.6598 0.6587 0.6565
1390.000000 0.6517 0.6498 0.6499 0.6510 0.6544
1395.000000 0.6584 0.6626 0.6669 0.6709 0.6747
1400.000000 0.6789 0.6840 0.6902 0.6971 0.7070
1405.000000 0.7153 0.7199 0.7216 0.7233 0.7238
1410.000000 0.7242 0.7246 0.7241 0.7266 0.7226
1415.000000 0.7218 0.7206 0.7192 0.7170 0.7148
1420.000000 0.7123 0.7093 0.7062 0.7031 0.6998
1425.000000 0.6965 0.6932 0.6898 0.6865 0.6832
1430.000000 0.6798 0.6765 0.6731 0.6696 0.6660
1435.000000 0.6625 0.6590 0.6556 0.6530 0.6519
1440.000000 0.6542 0.6590 0.6638 0.6686 0.6720
1445.000000 0.6711 0.6674 0.6626 0.6571 0.6370
1450.000000 0.5715 0.5276 0.5276 0.5303 0.6507
1455.000000 0.6509 0.6510 0.6454 0.6369 0.6294
1460.000000 0.6294 0.6737 0.6836 0.6860 0.6880
1465.000000 0.6898 0.6932 0.6995 0.7018 0.7018
1470.000000 0.7007 0.6982 0.6930 0.6916 0.6913
1475.000000 0.6939 0.7001 0.7092 0.7209 0.7303
1480.000000 0.7361 0.7424 0.7504 0.7583 0.7623
1485.000000 0.7663 0.7698 0.7727 0.7741 0.7755
1490.000000 0.7768 0.7778 0.7789 0.7884 0.7993
1495.000000 0.7990 0.7955 0.7921 0.7897 0.7874
1500.000000 0.8062 0.8158 0.8197 0.8225 0.8222
1505.000000 0.8219 0.8124 0.7957 0.7714 0.7703
1510.000000 0.7713 0.7849 0.7985 0.8121 0.8258
1515.000000 0.8280 0.8277 0.8274 0.8269 0.8263
1520.000000 0.8256 0.8220 0.8173 0.7947 0.7947
1525.000000 0.7927 0.8009 0.8068 0.8134 0.8188
1530.000000 0.8229 0.8261 0.8289 0.8305 0.8321
1535.000000 0.8335 0.8361 0.8389 0.8418 0.8447
1540.000000 0.8392 0.8212 0.7819 0.7780 0.7929
1545.000000 0.8079 0.8228 0.8375 0.8463 0.8515
1550.000000 0.8549 0.8556 0.8562 0.8559 0.8553
1555.000000 0.8544 0.8534 0.8514 0.8376 0.8092
1560.000000 0.7857 0.7855 0.7877 0.8033 0.8179
1565.000000 0.8325 0.8471 0.8558 0.8561 0.8561
1570.000000 0.8560 0.8558 0.8554 0.8549 0.8540
1575.000000 0.8522 0.8404 0.8285 0.8217 0.8225
1580.000000 0.8317 0.8410 0.8503 0.8572 0.8599
1585.000000 0.8604 0.8604 0.8604 0.8604 0.8603
1590.000000 0.8602 0.8602 0.8601 0.8600 0.8600
1595.000000 0.8600 0.8600 0.8600 0.8600 0.8600
1600.000000 0.8596 0.8592 0.8589 0.8585 0.8581
1605.000000 0.8577 0.8574 0.8569 0.8564 0.8559
1610.000000 0.8554 0.8549 0.8544 0.8539 0.8517
1615.000000 0.8492 0.8453 0.8389 0.8262 0.8244
1620.000000 0.8272 0.8342 0.8416 0.8473 0.8514
1625.000000 0.8515 0.8516 0.8521 0.8537 0.8554
1630.000000 0.8570 0.8581 0.8550 0.8476 0.8322
1635.000000 0.8170 0.8171 0.8159 0.8470 0.8528
1640.000000 0.8539 0.8538 0.8531 0.8525 0.8509
1645.000000 0.8466 0.8401 0.8327 0.8407 0.8445
1650.000000 0.8483 0.8238 0.7953 0.7667 0.7539
1655.000000 0.7535 0.7967 0.8460 0.8526 0.8525
1660.000000 0.8522 0.8516 0.8510 0.8505 0.8500
1665.000000 0.8493 0.8485 0.8474 0.8458 0.8425
1670.000000 0.8387 0.8356 0.8344 0.8334 0.8331
1675.000000 0.8329 0.8385 0.8446 0.8470 0.8475
1680.000000 0.8474 0.8466 0.8311 0.8155 0.8000
1685.000000 0.7845 0.7810 0.8237 0.8506 0.8518
1690.000000 0.8522 0.8522 0.8521 0.8503 0.8484
1695.000000 0.8459 0.8376 0.8196 0.8016 0.7835
1700.000000 0.7818 0.7821 0.7990 0.8180 0.8370
1705.000000 0.8422 0.8429 0.8434 0.8437 0.8435
1710.000000 0.8434 0.8428 0.8421 0.8402 0.8373
1715.000000 0.8316 0.8235 0.8155 0.8074 0.7994
1720.000000 0.7996 0.8140 0.8331 0.8422 0.8425
1725.000000 0.8423 0.8415 0.8406 0.8392 0.8371
1730.000000 0.8346 0.8311 0.8174 0.8021 0.7914
1735.000000 0.7949 0.8063 0.8176 0.8289 0.8308
1740.000000 0.8312 0.8319 0.8326 0.8332 0.8330
1745.000000 0.8329 0.8323 0.8317 0.8311 0.8306
1750.000000 0.8326 0.8350 0.8376 0.8402 0.8418
1755.000000 0.8433 0.8429 0.8428 0.8426 0.8425
1760.000000 0.8424 0.8422 0.8420 0.8416 0.8412
1765.000000 0.8406 0.8398 0.8389 0.8381 0.8369
1770.000000 0.8376 0.8405 0.8438 0.8470 0.8503
1775.000000 0.8524 0.8528 0.8530 0.8532 0.8533
1780.000000 0.8533 0.8532 0.8531 0.8530 0.8528
1785.000000 0.8525 0.8521 0.8517 0.8508 0.8500
1790.000000 0.8491 0.8484 0.8488 0.8495 0.8504
1795.000000 0.8513 0.8523 0.8532 0.8541 0.8549
1800.000000 0.8555 0.8561 0.8568 0.8574 0.8580
1805.000000 0.8586 0.8592 0.8596 0.8599 0.8602
1810.000000 0.8604 0.8607 0.8609 0.8610 0.8609
1815.000000 0.8608 0.8608 0.8607 0.8605 0.8604
1820.000000 0.8603 0.8602 0.8601 0.8600 0.8599
1825.000000 0.8600 0.8601 0.8601 0.8602 0.8603
1830.000000 0.8607 0.8614 0.8620 0.8626 0.8622
1835.000000 0.8618 0.8614 0.8606 0.8597 0.8572
1840.000000 0.8539 0.8504 0.8493 0.8509 0.8528
1845.000000 0.8552 0.8576 0.8600 0.8613 0.8616
1850.000000 0.8617 0.8618 0.8618 0.8618 0.8618
1855.000000 0.8618 0.8618 0.8618 0.8616 0.8613
1860.000000 0.8611 0.8608 0.8605 0.8600 0.8595
1865.000000 0.8589 0.8585 0.8582 0.8580 0.8590
1870.000000 0.8604 0.8617 0.8630 0.8630 0.8630
1875.000000 0.8628 0.8625 0.8621 0.8618 0.8614
1880.000000 0.8610 0.8606 0.8602 0.8598 0.8594
1885.000000 0.8589 0.8582 0.8574 0.8567 0.8562
1890.000000 0.8558 0.8555 0.8551 0.8548 0.8544
1895.000000 0.8544 0.8543 0.8542 0.8541 0.8540
1900.000000 0.8541 0.8542 0.8543 0.8544 0.8543
1905.000000 0.8540 0.8537 0.8534 0.8531 0.8528
1910.000000 0.8525 0.8523 0.8522 0.8520 0.8519
1915.000000 0.8518 0.8523 0.8533 0.8552 0.8570
1920.000000 0.8589 0.8597 0.8604 0.8607 0.8608
1925.000000 0.8610 0.8610 0.8610 0.8610 0.8610
1930.000000 0.8607 0.8604 0.8601 0.8597 0.8594
1935.000000 0.8590 0.8587 0.8583 0.8582 0.8581
1940.000000 0.8580 0.8580 0.8579 0.8577 0.8576
1945.000000 0.8574 0.8572 0.8571 0.8569 0.8568
1950.000000 0.8566 0.8565 0.8564 0.8563 0.8562
1955.000000 0.8561 0.8560 0.8561 0.8563 0.8566
1960.000000 0.8568 0.8570 0.8572 0.8574 0.8575
1965.000000 0.8577 0.8578 0.8580 0.8582 0.8584
1970.000000 0.8586 0.8586 0.8586 0.8586 0.8586
1975.000000 0.8587 0.8588 0.8588 0.8589 0.8590
1980.000000 0.8590 0.8592 0.8593 0.8595 0.8596
1985.000000 0.8597 0.8598 0.8598 0.8598 0.8598
1990.000000 0.8604 0.8613 0.8628 0.8643 0.8655
1995.000000 0.8660 0.8661 0.8662 0.8663 0.8663
2000.000000 0.8662 0.8661 0.8660 0.8660 0.8660
2005.000000 0.8660 0.8660 0.8660 0.8660 0.8660
2010.000000 0.8660 0.8660 0.8660 0.8660 0.8660
2015.000000 0.8660 0.8660 0.8660 0.8660 0.8660
2020.000000 0.8660 0.8659 0.8659 0.8658 0.8658
2025.000000 0.8657 0.8657 0.8657 0.8657 0.8656
2030.000000 0.8656 0.8655 0.8655 0.8654 0.8654
2035.000000 0.8653 0.8653 0.8652 0.8652 0.8651
2040.000000 0.8651 0.8650 0.8650 0.8650 0.8650
2045.000000 0.8649 0.8649 0.8648 0.8647 0.8646
2050.000000 0.8645 0.8644 0.8643 0.8642 0.8641
2055.000000 0.8640 0.8639 0.8638 0.8637 0.8636
2060.000000 0.8635 0.8634 0.8633 0.8632 0.8631
2065.000000 0.8630 0.8629 0.8628 0.8627 0.8626
2070.000000 0.8626 0.8625 0.8625 0.8624 0.8624
2075.000000 0.8623 0.8623 0.8622 0.8622 0.8621
2080.000000 0.8621 0.8620 0.8620 0.8619 0.8619
2085.000000 0.8618 0.8618 0.8617 0.8617 0.8617
2090.000000 0.8617 0.8617 0.8617 0.8617 0.8617
2095.000000 0.8617 0.8617 0.8617 0.8617 0.8617
2100.000000 0.8617 0.8617 0.8617 0.8617 0.8617
2105.000000 0.8617 0.8617 0.8617 0.8617 0.8617
2110.000000 0.8617 0.8616 0.8616 0.8615 0.8615
2115.000000 0.8614 0.8614 0.8613 0.8613 0.8612
2120.000000 0.8612 0.8611 0.8610 0.8609 0.8609
2125.000000 0.8606 0.8603 0.8599 0.8596 0.8592
2130.000000 0.8589 0.8585 0.8582 0.8578 0.8575
2135.000000 0.8569 0.8564 0.8558 0.8552 0.8546
2140.000000 0.8541 0.8535 0.8529 0.8523 0.8517
2145.000000 0.8510 0.8503 0.8493 0.8484 0.8474
2150.000000 0.8465 0.8458 0.8451 0.8447 0.8443
2155.000000 0.8439 0.8436 0.8432 0.8429 0.8426
2160.000000 0.8423 0.8423 0.8415 0.8423 0.8423
2165.000000 0.8424 0.8425 0.8426 0.8427 0.8429
2170.000000 0.8432 0.8435 0.8438 0.8441 0.8444
2175.000000 0.8450 0.8456 0.8462 0.8469 0.8476
2180.000000 0.8483 0.8491 0.8499 0.8506 0.8514
2185.000000 0.8519 0.8525 0.8530 0.8536 0.8541
2190.000000 0.8546 0.8551 0.8557 0.8562 0.8568
2195.000000 0.8573 0.8578 0.8581 0.8584 0.8587
2200.000000 0.8591 0.8594 0.8597 0.8600 0.8603
2205.000000 0.8605 0.8607 0.8609 0.8612 0.8614
2210.000000 0.8617 0.8619 0.8621 0.8623 0.8626
2215.000000 0.8628 0.8630 0.8631 0.8633 0.8634
2220.000000 0.8636 0.8637 0.8639 0.8640 0.8642
2225.000000 0.8643 0.8644 0.8645 0.8646 0.8647
2230.000000 0.8648 0.8649 0.8650 0.8651 0.8652
2235.000000 0.8653 0.8654 0.8655 0.8656 0.8657
2240.000000 0.8658 0.8659 0.8660 0.8661 0.8662
2245.000000 0.8663 0.8664 0.8665 0.8667 0.8669
2250.000000 0.8671 0.8672 0.8674 0.8675 0.8677
2255.000000 0.8678 0.8680 0.8682 0.8684 0.8685
2260.000000 0.8687 0.8688 0.8690 0.8691 0.8693
2265.000000 0.8695 0.8697 0.8698 0.8699 0.8700
2270.000000 0.8701 0.8701 0.8702 0.8703 0.8704
2275.000000 0.8705 0.8706 0.8707 0.8708 0.8708
2280.000000 0.8709 0.8710 0.8711 0.8712 0.8713
2285.000000 0.8714 0.8715 0.8716 0.8717 0.8717
2290.000000 0.8717 0.8717 0.8717 0.8717 0.8717
2295.000000 0.8717 0.8717 0.8717 0.8717 0.8717
2300.000000 0.8717 0.8717 0.8717 0.8717 0.8717
2305.000000 0.8717 0.8717 0.8717 0.8717 0.8717
2310.000000 0.8717 0.8717 0.8717 0.8716 0.8716
2315.000000 0.8715 0.8715 0.8714 0.8713 0.8712
2320.000000 0.8712 0.8711 0.8711 0.8710 0.8710
2325.000000 0.8709 0.8708 0.8707 0.8707 0.8706
2330.000000 0.8706 0.8705 0.8705 0.8704 0.8703
2335.000000 0.8702 0.8702 0.8702 0.8702 0.8702
2340.000000 0.8702 0.8702 0.8703 0.8703 0.8703
2345.000000 0.8703 0.8704 0.8704 0.8705 0.8705
2350.000000 0.8705 0.8705 0.8705 0.8705 0.8705
2355.000000 0.8705 0.8705 0.8705 0.8705 0.8704
2360.000000 0.8703 0.8702 0.8701 0.8699 0.8698
2365.000000 0.8697 0.8696 0.8695 0.8694 0.8691
2370.000000 0.8688 0.8685 0.8683 0.8680 0.8677
2375.000000 0.8674 0.8672 0.8669 0.8666 0.8663
2380.000000 0.8661 0.8658 0.8656 0.8653 0.8650
2385.000000 0.8647 0.8645 0.8641 0.8638 0.8634
2390.000000 0.8631 0.8627 0.8623 0.8619 0.8616
2395.000000 0.8612 0.8609 0.8602 0.8596 0.8589
2400.000000 0.8583 0.8576 0.8570 0.8563 0.8557
2405.000000 0.8549 0.8541 0.8527 0.8514 0.8500
2410.000000 0.8486 0.8480 0.8475 0.8473 0.8472
2415.000000 0.8470 0.8469 0.8467 0.8466 0.8464
2420.000000 0.8463 0.8462 0.8461 0.8461 0.8461
2425.000000 0.8461 0.8473 0.8462 0.8463 0.8464
2430.000000 0.8466 0.8469 0.8472 0.8477 0.8483
2435.000000 0.8488 0.8494 0.8499 0.8505 0.8511
2440.000000 0.8517 0.8526 0.8536 0.8546 0.8557
2445.000000 0.8572 0.8588 0.8603 0.8618 0.8628
2450.000000 0.8639 0.8644 0.8650 0.8654 0.8658
2455.000000 0.8661 0.8664 0.8666 0.8668 0.8669
2460.000000 0.8671 0.8673 0.8675 0.8676 0.8678
2465.000000 0.8680 0.8682 0.8684 0.8686 0.8687
2470.000000 0.8689 0.8690 0.8692 0.8693 0.8695
2475.000000 0.8696 0.8698 0.8699 0.8701 0.8702
2480.000000 0.8704 0.8705 0.8707 0.8708 0.8710
2485.000000 0.8711 0.8713 0.8713 0.8714 0.8715
2490.000000 0.8716 0.8717 0.8718 0.8719 0.8720
2495.000000 0.8720 0.8721 0.8722 0.8723 0.8724
2500.000000 0.8725 0.8726 0.8727 0.8727 0.8728
2505.000000 0.8728 0.8729 0.8730 0.8731 0.8731
2510.000000 0.8732 0.8732 0.8733 0.8733 0.8734
2515.000000 0.8734 0.8735 0.8735 0.8736 0.8736
2520.000000 0.8737 0.8737 0.8738 0.8738 0.8739
2525.000000 0.8739 0.8740 0.8740 0.8740 0.8740
2530.000000 0.8740 0.8740 0.8741 0.8741 0.8741
2535.000000 0.8741 0.8741 0.8741 0.8741 0.8741
2540.000000 0.8742 0.8742 0.8742 0.8742 0.8742
2545.000000 0.8742 0.8742 0.8742 0.8743 0.8743
2550.000000 0.8743 0.8743 0.8743 0.8743 0.8744
2555.000000 0.8744 0.8744 0.8744 0.8745 0.8745
2560.000000 0.8745 0.8745 0.8746 0.8746 0.8746
2565.000000 0.8746 0.8747 0.8747 0.8747 0.8747
2570.000000 0.8748 0.8748 0.8748 0.8748 0.8749
2575.000000 0.8749 0.8750 0.8750 0.8750 0.8750
2580.000000 0.8751 0.8750 0.8750 0.8749 0.8748
2585.000000 0.8747 0.8747 0.8746 0.8745 0.8744
2590.000000 0.8743 0.8742 0.8742 0.8741 0.8740
2595.000000 0.8739 0.8738 0.8737 0.8737 0.8736
2600.000000 0.8735 0.8734 0.8733 0.8732 0.8732
2605.000000 0.8730 0.8728 0.8726 0.8724 0.8722
2610.000000 0.8720 0.8717 0.8715 0.8713 0.8711
2615.000000 0.8709 0.8707 0.8705 0.8703 0.8701
2620.000000 0.8699 0.8697 0.8695 0.8692 0.8689
2625.000000 0.8685 0.8681 0.8676 0.8672 0.8667
2630.000000 0.8663 0.8658 0.8654 0.8649 0.8645
2635.000000 0.8641 0.8637 0.8632 0.8628 0.8623
2640.000000 0.8619 0.8619 0.8619 0.8619 0.8619
2645.000000 0.8619 0.8619 0.8619 0.8619 0.8619
2650.000000 0.8619 0.8622 0.8625 0.8628 0.8632
2655.000000 0.8635 0.8638 0.8641 0.8645 0.8648
2660.000000 0.8652 0.8655 0.8658 0.8661 0.8665
2665.000000 0.8668 0.8671 0.8674 0.8677 0.8680
2670.000000 0.8683 0.8686 0.8689 0.8692 0.8696
2675.000000 0.8699 0.8702 0.8705 0.8708 0.8708
2680.000000 0.8708 0.8708 0.8708 0.8708 0.8708
2685.000000 0.8708 0.8708 0.8708 0.8708 0.8707
2690.000000 0.8706 0.8705 0.8705 0.8704 0.8703
2695.000000 0.8702 0.8702 0.8701 0.8700 0.8698
2700.000000 0.8697 0.8694 0.8692 0.8690 0.8688
2705.000000 0.8685 0.8683 0.8681 0.8679 0.8676
2710.000000 0.8673 0.8669 0.8665 0.8660 0.8656
2715.000000 0.8652 0.8648 0.8644 0.8640 0.8635
2720.000000 0.8631 0.8624 0.8617 0.8609 0.8602
2725.000000 0.8595 0.8588 0.8580 0.8573 0.8567
2730.000000 0.8562 0.8556 0.8551 0.8546 0.8541
2735.000000 0.8536 0.8532 0.8530 0.8529 0.8527
2740.000000 0.8526 0.8524 0.8522 0.8522 0.8523
2745.000000 0.8524 0.8525 0.8528 0.8532 0.8539
2750.000000 0.8546 0.8558 0.8571 0.8586 0.8601
2755.000000 0.8621 0.8642 0.8662 0.8683 0.8693
2760.000000 0.8704 0.8714 0.8724 0.8730 0.8736
2765.000000 0.8741 0.8746 0.8748 0.8751 0.8752
2770.000000 0.8753 0.8753 0.8754 0.8752 0.8750
2775.000000 0.8747 0.8745 0.8742 0.8739 0.8736
2780.000000 0.8734 0.8731 0.8728 0.8724 0.8721
2785.000000 0.8717 0.8713 0.8709 0.8705 0.8701
2790.000000 0.8698 0.8693 0.8689 0.8683 0.8678
2795.000000 0.8672 0.8667 0.8661 0.8656 0.8650
2800.000000 0.8645 0.8639 0.8634 0.8625 0.8617
2805.000000 0.8608 0.8600 0.8591 0.8583 0.8574
2810.000000 0.8566 0.8557 0.8548 0.8539 0.8530
2815.000000 0.8519 0.8509 0.8498 0.8488 0.8478
2820.000000 0.8468 0.8459 0.8451 0.8445 0.8439
2825.000000 0.8433 0.8428 0.8422 0.8417 0.8416
2830.000000 0.8416 0.8415 0.8415 0.8414 0.8414
2835.000000 0.8412 0.8411 0.8408 0.8405 0.8402
2840.000000 0.8400 0.8393 0.8387 0.8354 0.8321
2845.000000 0.8282 0.8244 0.8211 0.8178 0.8124
2850.000000 0.8071 0.8020 0.7969 0.7920 0.7872
2855.000000 0.7822 0.7772 0.7715 0.7658 0.7577
2860.000000 0.7497 0.7283 0.7070 0.6837 0.6604
2865.000000 0.6371 0.6138 0.6057 0.5976 0.5991
2870.000000 0.5978 0.6068 0.6130 0.6163 0.6203
2875.000000 0.6147 0.6098 0.6017 0.5937 0.5856
2880.000000 0.5776 0.5754 0.5732 0.5729 0.5734
2885.000000 0.5822 0.5918 0.6086 0.6255 0.6424
2890.000000 0.6593 0.6761 0.6930 0.7054 0.7179
2895.000000 0.7187 0.7195 0.7196 0.7217 0.7197
2900.000000 0.7197 0.7189 0.7181 0.7101 0.7021
2905.000000 0.6940 0.6860 0.6789 0.6718 0.6643
2910.000000 0.6569 0.6406 0.6244 0.6031 0.5818
2915.000000 0.5605 0.5393 0.5180 0.4967 0.4754
2920.000000 0.4542 0.4459 0.4377 0.4366 0.4356
2925.000000 0.4345 0.4335 0.4324 0.4313 0.4306
2930.000000 0.4299 0.4295 0.4302 0.4291 0.4290
2935.000000 0.4339 0.4388 0.4517 0.4647 0.4777
2940.000000 0.4907 0.5036 0.5166 0.5296 0.5426
2945.000000 0.5555 0.5685 0.5815 0.5945 0.6072
2950.000000 0.6280 0.6208 0.6217 0.6220 0.6224
2955.000000 0.6135 0.6047 0.5933 0.5819 0.5704
2960.000000 0.5590 0.5476 0.5362 0.5248 0.5134
2965.000000 0.5019 0.4905 0.4791 0.4677 0.4563
2970.000000 0.4449 0.4334 0.4220 0.4121 0.3941
2975.000000 0.3992 0.3962 0.3946 0.3931 0.3972
2980.000000 0.4014 0.4208 0.4403 0.4437 0.4510
2985.000000 0.4448 0.4425 0.4265 0.4106 0.3946
2990.000000 0.3787 0.3774 0.3761 0.3762 0.3755
2995.000000 0.4377 0.4991 0.5141 0.5291 0.5344
3000.000000 0.5397 0.5475 0.5554 0.5632 0.5710
3005.000000 0.5788 0.5867 0.5945 0.6023 0.6058
3010.000000 0.6093 0.6090 0.6171 0.6051 0.6015
3015.000000 0.5978 0.5942 0.6221 0.6501 0.6541
3020.000000 0.6581 0.6621 0.6662 0.6730 0.5679
3025.000000 0.6879 0.6960 0.7081 0.7202 0.7286
3030.000000 0.7371 0.7433 0.7496 0.7555 0.7615
3035.000000 0.7671 0.7728 0.7773 0.7818 0.7860
3040.000000 0.7902 0.7941 0.7981 0.8012 0.8043
3045.000000 0.8074 0.8106 0.8137 0.8168 0.8198
3050.000000 0.8229 0.8259 0.8289 0.8320 0.8352
3055.000000 0.8385 0.8419 0.8446 0.8473 0.8490
3060.000000 0.8508 0.8525 0.8543 0.8558 0.8573
3065.000000 0.8588 0.8603 0.8614 0.8626 0.8633
3070.000000 0.8640 0.8647 0.8654 0.8661 0.8668
3075.000000 0.8672 0.8676 0.8678 0.8699 0.8684
3080.000000 0.8687 0.8689 0.8692 0.8694 0.8696
3085.000000 0.8697 0.8699 0.8700 0.8702 0.8703
3090.000000 0.8704 0.8705 0.8707 0.8708 0.8709
3095.000000 0.8709 0.8710 0.8710 0.8710 0.8710
3100.000000 0.8710 0.8710 0.8710 0.8710 0.8710
3105.000000 0.8710 0.8710 0.8710 0.8710 0.8710
3110.000000 0.8711 0.8711 0.8711 0.8711 0.8711
3115.000000 0.8711 0.8712 0.8712 0.8712 0.8712
3120.000000 0.8712 0.8712 0.8713 0.8713 0.8713
3125.000000 0.8713 0.8714 0.8714 0.8714 0.8714
3130.000000 0.8714 0.8714 0.8714 0.8713 0.8713
3135.000000 0.8713 0.8713 0.8712 0.8712 0.8712
3140.000000 0.8712 0.8711 0.8711 0.8711 0.8711
3145.000000 0.8710 0.8709 0.8707 0.8706 0.8704
3150.000000 0.8703 0.8701 0.8699 0.8697 0.8696
3155.000000 0.8694 0.8693 0.8691 0.8690 0.8688
3160.000000 0.8686 0.8684 0.8683 0.8681 0.8680
3165.000000 0.8677 0.8674 0.8671 0.8668 0.8665
3170.000000 0.8662 0.8659 0.8656 0.8653 0.8650
3175.000000 0.8646 0.8643 0.8640 0.8637 0.8634
3180.000000 0.8631 0.8628 0.8625 0.8622 0.8619
3185.000000 0.8616 0.8613 0.8609 0.8606 0.8603
3190.000000 0.8600 0.8597 0.8594 0.8591 0.8588
3195.000000 0.8585 0.8582 0.8581 0.8581 0.8580
3200.000000 0.8580 0.8579 0.8578 0.8577 0.8577
3205.000000 0.8576 0.8576 0.8575 0.8574 0.8573
3210.000000 0.8573 0.8572 0.8572 0.8571 0.8551
3215.000000 0.8570 0.8570 0.8569 0.8569 0.8568
3220.000000 0.8568 0.8568 0.8568 0.8569 0.8571
3225.000000 0.8573 0.8576 0.8578 0.8581 0.8584
3230.000000 0.8587 0.8592 0.8598 0.8603 0.8609
3235.000000 0.8615 0.8621 0.8627 0.8634 0.8641
3240.000000 0.8648 0.8655 0.8662 0.8668 0.8675
3245.000000 0.8681 0.8688 0.8694 0.8701 0.8707
3250.000000 0.8714 0.8720 0.8727 0.8734 0.8741
3255.000000 0.8744 0.8748 0.8750 0.8753 0.8755
3260.000000 0.8758 0.8760 0.8763 0.8765 0.8768
3265.000000 0.8769 0.8771 0.8772 0.8774 0.8775
3270.000000 0.8777 0.8778 0.8779 0.8780 0.8782
3275.000000 0.8783 0.8784 0.8785 0.8787 0.8788
3280.000000 0.8789 0.8790 0.8792 0.8792 0.8793
3285.000000 0.8793 0.8794 0.8794 0.8795 0.8796
3290.000000 0.8797 0.8797 0.8798 0.8798 0.8799
3295.000000 0.8800 0.8801 0.8801 0.8802 0.8802
3300.000000 0.8802 0.8801 0.8800 0.8799 0.8798
3305.000000 0.8797 0.8796 0.8795 0.8794 0.8793
3310.000000 0.8792 0.8790 0.8789 0.8788 0.8787
3315.000000 0.8787 0.8787 0.8786 0.8786 0.8786
3320.000000 0.8786 0.8785 0.8785 0.8784 0.8784
3325.000000 0.8784 0.8784 0.8784 0.8784 0.8784
3330.000000 0.8784 0.8784 0.8785 0.8785 0.8786
3335.000000 0.8786 0.8787 0.8787 0.8787 0.8787
3340.000000 0.8787 0.8787 0.8787 0.8787 0.8787
3345.000000 0.8787 0.8787 0.8787 0.8787 0.8787
3350.000000 0.8787 0.8784 0.8781 0.8777 0.8773
3355.000000 0.8769 0.8765 0.8762 0.8760 0.8759
3360.000000 0.8759 0.8758 0.8758 0.8758 0.8758
3365.000000 0.8757 0.8757 0.8756 0.8756 0.8761
3370.000000 0.8767 0.8774 0.8781 0.8788 0.8796
3375.000000 0.8803 0.8811 0.8816 0.8822 0.8822
3380.000000 0.8822 0.8822 0.8822 0.8822 0.8822
3385.000000 0.8821 0.8821 0.8820 0.8820 0.8819
3390.000000 0.8819 0.8818 0.8818 0.8817 0.8817
3395.000000 0.8816 0.8816 0.8815 0.8815 0.8814
3400.000000 0.8814 0.8814 0.8814 0.8814 0.8814
3405.000000 0.8814 0.8814 0.8814 0.8814 0.8814
3410.000000 0.8814 0.8814 0.8814 0.8814 0.8814
3415.000000 0.8814 0.8814 0.8814 0.8814 0.8814
3420.000000 0.8814 0.8813 0.8813 0.8812 0.8812
3425.000000 0.8811 0.8811 0.8811 0.8811 0.8810
3430.000000 0.8810 0.8809 0.8809 0.8809 0.8809
3435.000000 0.8808 0.8808 0.8807 0.8807 0.8807
3440.000000 0.8807 0.8805 0.8804 0.8803 0.8802
3445.000000 0.8800 0.8799 0.8797 0.8796 0.8794
3450.000000 0.8793 0.8791 0.8790 0.8788 0.8787
3455.000000 0.8785 0.8784 0.8783 0.8782 0.8781
3460.000000 0.8780 0.8779 0.8779 0.8778 0.8777
3465.000000 0.8776 0.8775 0.8774 0.8773 0.8772
3470.000000 0.8772 0.8771 0.8771 0.8771 0.8771
3475.000000 0.8771 0.8771 0.8771 0.8771 0.8771
3480.000000 0.8771 0.8772 0.8773 0.8774 0.8776
3485.000000 0.8777 0.8779 0.8780 0.8781 0.8782
3490.000000 0.8784 0.8785 0.8787 0.8788 0.8789
3495.000000 0.8790 0.8792 0.8793 0.8795 0.8796
3500.000000 0.8797 0.8798 0.8806 0.8801 0.8803
3505.000000 0.8805 0.8807 0.8809 0.8811 0.8813
3510.000000 0.8815 0.8817 0.8819 0.8821 0.8823
3515.000000 0.8825 0.8827 0.8827 0.8827 0.8825
3520.000000 0.8823 0.8821 0.8819 0.8812 0.8805
3525.000000 0.8796 0.8788 0.8782 0.8776 0.8771
3530.000000 0.8766 0.8764 0.8762 0.8761 0.8761
3535.000000 0.8760 0.8759 0.8760 0.8761 0.8762
3540.000000 0.8763 0.8764 0.8765 0.8766 0.8767
3545.000000 0.8770 0.8774 0.8777 0.8781 0.8784
3550.000000 0.8788 0.8791 0.8795 0.8801 0.8808
3555.000000 0.8814 0.8821 0.8826 0.8831 0.8833
3560.000000 0.8835 0.8833 0.8832 0.8830 0.8829
3565.000000 0.8824 0.8819 0.8814 0.8809 0.8804
3570.000000 0.8799 0.8794 0.8790 0.8785 0.8781
3575.000000 0.8776 0.8772 0.8768 0.8765 0.8761
3580.000000 0.8757 0.8753 0.8749 0.8745 0.8742
3585.000000 0.8738 0.8735 0.8731 0.8727 0.8723
3590.000000 0.8720 0.8716 0.8713 0.8709 0.8705
3595.000000 0.8701 0.8698 0.8694 0.8691 0.8689
3600.000000 0.8687 0.8685 0.8684 0.8683 0.8682
3605.000000 0.8682 0.8682 0.8688 0.8694 0.8703
3610.000000 0.8712 0.8720 0.8728 0.8736 0.8744
3615.000000 0.8749 0.8755 0.8756 0.8758 0.8754
3620.000000 0.8750 0.8735 0.8721 0.8700 0.8680
3625.000000 0.8655 0.8631 0.8614 0.8597 0.8599
3630.000000 0.8602 0.8607 0.8613 0.8628 0.8644
3635.000000 0.8677 0.8711 0.8725 0.8739 0.8745
3640.000000 0.8751 0.8749 0.8748 0.8743 0.8738
3645.000000 0.8731 0.8724 0.8708 0.8692 0.8665
3650.000000 0.8638 0.8628 0.8618 0.8616 0.8615
3655.000000 0.8633 0.8652 0.8667 0.8683 0.8693
3660.000000 0.8703 0.8702 0.8701 0.8693 0.8685
3665.000000 0.8666 0.8648 0.8643 0.8639 0.8659
3670.000000 0.8680 0.8699 0.8719 0.8729 0.8740
3675.000000 0.8735 0.8730 0.8724 0.8719 0.8714
3680.000000 0.8709 0.8704 0.8699 0.8695 0.8691
3685.000000 0.8686 0.8682 0.8678 0.8674 0.8682
3690.000000 0.8690 0.8702 0.8715 0.8726 0.8738
3695.000000 0.8744 0.8750 0.8752 0.8754 0.8753
3700.000000 0.8752 0.8748 0.8744 0.8739 0.8735
3705.000000 0.8730 0.8726 0.8716 0.8706 0.8694
3710.000000 0.8682 0.8670 0.8659 0.8648 0.8637
3715.000000 0.8623 0.8609 0.8592 0.8575 0.8558
3720.000000 0.8542 0.8529 0.8516 0.8503 0.8490
3725.000000 0.8481 0.8473 0.8472 0.8472 0.8479
3730.000000 0.8487 0.8510 0.8534 0.8581 0.8628
3735.000000 0.8680 0.8733 0.8745 0.8757 0.8761
3740.000000 0.8765 0.8768 0.8772 0.8773 0.8775
3745.000000 0.8775 0.8776 0.8776 0.8777 0.8777
3750.000000 0.8778 0.8778 0.8778
##END=
