##TITLE=CYCLOPROPANE
##JCAMP-DX=4.24
##DATA TYPE=INFRARED SPECTRUM
##CLASS=COBLENTZ
##ORIGIN=DOW CHEMICAL COMPANY
##OWNER=COBLENTZ SOCIETY
Collection (C) 2018 copyright by the U.S. Secretary of Commerce
on behalf of the United States of America. All rights reserved.
##DATE=Not specified, most likely prior to 1982
##CAS REGISTRY NO=75-19-4
##MOLFORM=C3 H6
##SOURCE REFERENCE=COBLENTZ NO. 10488
##$NIST SOURCE=COBLENTZ
##$NIST IMAGE=cob10488
##SPECTROMETER/DATA SYSTEM=DOW KBr FOREPRISM-GRATING
##INSTRUMENT PARAMETERS=BLAZED AT 3.5, 12.0, 20.0 MICRON, CHANGED AT 5.0, 7.5, 14.9 MICRON
##STATE=GAS (100 mmHg DILUTED TO A TOTAL PRESSURE OF 400 mmHg WITH N2)
##PATH LENGTH=5 CM CELL
##SAMPLING PROCEDURE=TRANSMISSION
##RESOLUTION=4
##DATA PROCESSING=DIGITIZED BY NIST FROM HARD COPY (FROM TWO SEGMENTS)
##XUNITS=1/CM
##YUNITS=TRANSMITTANCE
##XFACTOR=1.000000
##YFACTOR=1
##DELTAX=0.874833
##FIRSTX=464.67
##LASTX=3800.41
##FIRSTY=0.92
##MAXX=3800.41
##MINX=464.67
##MAXY=1
##MINY=0.008
##NPOINTS=3814
##XYDATA=(X++(Y..Y))
464.670000 0.9200 0.9190 0.9190 0.9170 0.9170
469.044167 0.9160 0.9150 0.9130 0.9130 0.9130
473.418334 0.9130 0.9130 0.9130 0.9130 0.9130
477.792501 0.9130 0.9130 0.9120 0.9100 0.9090
482.166668 0.9090 0.9090 0.9080 0.9080 0.9080
486.540836 0.9080 0.9080 0.9060 0.9060 0.9050
490.915003 0.9040 0.9040 0.9040 0.9040 0.9040
495.289170 0.9040 0.9040 0.9040 0.9040 0.9040
499.663337 0.9020 0.9020 0.9010 0.9010 0.9010
504.037504 0.9010 0.9010 0.9010 0.9010 0.9010
508.411671 0.9010 0.9010 0.9010 0.9010 0.8980
512.785838 0.8980 0.8970 0.8970 0.8950 0.8950
517.160005 0.8950 0.8950 0.8950 0.8950 0.8950
521.534172 0.8940 0.8940 0.8940 0.8940 0.8940
525.908339 0.8940 0.8940 0.8940 0.8950 0.8950
530.282507 0.8950 0.8970 0.8970 0.8980 0.8980
534.656674 0.8980 0.9000 0.9000 0.9000 0.9010
539.030841 0.9010 0.9010 0.9010 0.9020 0.9020
543.405008 0.9040 0.9050 0.9050 0.9060 0.9060
547.779175 0.9080 0.9080 0.9090 0.9090 0.9090
552.153342 0.9090 0.9100 0.9100 0.9100 0.9090
556.527509 0.9090 0.9090 0.9090 0.9090 0.9090
560.901676 0.9090 0.9090 0.9090 0.9090 0.9100
565.275843 0.9100 0.9100 0.9100 0.9100 0.9100
569.650010 0.9100 0.9100 0.9100 0.9100 0.9120
574.024178 0.9120 0.9120 0.9130 0.9130 0.9150
578.398345 0.9160 0.9170 0.9190 0.9200 0.9200
582.772512 0.9210 0.9210 0.9230 0.9240 0.9240
587.146679 0.9240 0.9260 0.9260 0.9260 0.9270
591.520846 0.9270 0.9280 0.9280 0.9280 0.9280
595.895013 0.9280 0.9280 0.9280 0.9280 0.9280
600.269180 0.9270 0.9270 0.9280 0.9280 0.9280
604.643347 0.9280 0.9280 0.9300 0.9300 0.9300
609.017514 0.9280 0.9280 0.9280 0.9280 0.9300
613.391681 0.9300 0.9310 0.9320 0.9320 0.9340
617.765849 0.9340 0.9340 0.9340 0.9350 0.9360
622.140016 0.9360 0.9380 0.9390 0.9380 0.9390
626.514183 0.9390 0.9410 0.9410 0.9410 0.9420
630.888350 0.9420 0.9430 0.9430 0.9430 0.9430
635.262517 0.9450 0.9450 0.9450 0.9450 0.9460
639.636684 0.9470 0.9470 0.9490 0.9490 0.9500
644.010851 0.9500 0.9500 0.9500 0.9500 0.9500
648.385018 0.9520 0.9530 0.9530 0.9530 0.9540
652.759185 0.9530 0.9530 0.9530 0.9530 0.9540
657.133352 0.9540 0.9540 0.9540 0.9540 0.9560
661.507520 0.9560 0.9560 0.9560 0.9560 0.9560
665.881687 0.9570 0.9570 0.9570 0.9570 0.9570
670.255854 0.9570 0.9570 0.9570 0.9570 0.9570
674.630021 0.9580 0.9580 0.9580 0.9580 0.9580
679.004188 0.9580 0.9580 0.9570 0.9570 0.9570
683.378355 0.9570 0.9570 0.9570 0.9570 0.9580
687.752522 0.9580 0.9580 0.9600 0.9610 0.9630
692.126689 0.9630 0.9640 0.9640 0.9650 0.9650
696.500856 0.9650 0.9650 0.9650 0.9650 0.9650
700.875023 0.9640 0.9640 0.9640 0.9640 0.9630
705.249191 0.9630 0.9630 0.9630 0.9630 0.9630
709.623358 0.9630 0.9640 0.9640 0.9640 0.9640
713.997525 0.9650 0.9670 0.9670 0.9680 0.9680
718.371692 0.9690 0.9710 0.9720 0.9720 0.9720
722.745859 0.9730 0.9730 0.9730 0.9750 0.9750
727.120026 0.9750 0.9760 0.9760 0.9780 0.9790
731.494193 0.9790 0.9800 0.9800 0.9800 0.9800
735.868360 0.9800 0.9800 0.9800 0.9800 0.9800
740.242527 0.9790 0.9790 0.9780 0.9780 0.9790
744.616694 0.9790 0.9800 0.9820 0.9820 0.9830
748.990862 0.9830 0.9830 0.9840 0.9840 0.9840
753.365029 0.9840 0.9830 0.9830 0.9830 0.9830
757.739196 0.9820 0.9800 0.9800 0.9790 0.9790
762.113363 0.9790 0.9790 0.9780 0.9780 0.9750
766.487530 0.9720 0.9710 0.9710 0.9680 0.9650
770.861697 0.9640 0.9610 0.9600 0.9570 0.9560
775.235864 0.9540 0.9470 0.9450 0.9420 0.9360
779.610031 0.9320 0.9260 0.9170 0.9120 0.9050
783.984198 0.8970 0.8910 0.8800 0.8730 0.8710
788.358366 0.8630 0.8460 0.8340 0.8230 0.8120
792.732533 0.7970 0.7801 0.7690 0.7491 0.7420
797.106700 0.7270 0.6980 0.6950 0.6640 0.6460
801.480867 0.6260 0.6150 0.5911 0.5641 0.5461
805.855034 0.5160 0.5050 0.4950 0.4820 0.4381
810.229201 0.4081 0.3940 0.3890 0.3761 0.3541
814.603368 0.3310 0.3060 0.2790 0.2630 0.2570
818.977535 0.2321 0.2011 0.1910 0.1820 0.1651
823.351702 0.1560 0.1430 0.1310 0.1230 0.1150
827.725869 0.1120 0.1010 0.0970 0.0910 0.0870
832.100037 0.0860 0.0820 0.0790 0.0780 0.0780
836.474204 0.0760 0.0760 0.0750 0.0750 0.0750
840.848371 0.0760 0.0780 0.0790 0.0800 0.0820
845.222538 0.0830 0.0870 0.0930 0.0950 0.0980
849.596705 0.0980 0.0910 0.0780 0.0750 0.1080
853.970872 0.1080 0.1010 0.0930 0.0830 0.0681
858.345039 0.0600 0.0500 0.0410 0.0360 0.0300
862.719206 0.0270 0.0260 0.0260 0.0260 0.0270
867.093373 0.0310 0.0340 0.0270 0.0270 0.0310
871.467540 0.0450 0.0520 0.1885 0.2298 0.2688
875.841708 0.2820 0.2760 0.2570 0.2310 0.1931
880.215875 0.1561 0.1301 0.1200 0.1041 0.0970
884.590042 0.0890 0.0830 0.0790 0.0730 0.0690
888.964209 0.0690 0.0650 0.0640 0.0560 0.0520
893.338376 0.0520 0.0520 0.0520 0.0520 0.0530
897.712543 0.0540 0.0560 0.0570 0.0600 0.0610
902.086710 0.0630 0.0630 0.0670 0.0680 0.0710
906.460877 0.0730 0.0780 0.0820 0.0999 0.1189
910.835044 0.1230 0.1310 0.1450 0.1580 0.1680
915.209211 0.1890 0.2010 0.2160 0.2270 0.2469
919.583379 0.2670 0.2930 0.3230 0.3410 0.3650
923.957546 0.3899 0.4060 0.4259 0.4429 0.4709
928.331713 0.4890 0.5190 0.5570 0.6100 0.6170
932.705880 0.6390 0.6599 0.6779 0.6939 0.7318
937.080047 0.7500 0.7680 0.7930 0.8280 0.8430
941.454214 0.8560 0.8640 0.8730 0.8840 0.8930
945.828381 0.8950 0.9040 0.9130 0.9190 0.9270
950.202548 0.9340 0.9380 0.9450 0.9460 0.9490
954.576715 0.9540 0.9560 0.9580 0.9580 0.9600
958.950882 0.9600 0.9600 0.9580 0.9580 0.9570
963.325050 0.9560 0.9520 0.9470 0.9430 0.9380
967.699217 0.9320 0.9300 0.9170 0.9080 0.8931
972.073384 0.8860 0.8760 0.8560 0.8450 0.8260
976.447551 0.8041 0.7841 0.7641 0.7540 0.7003
980.821718 0.6420 0.6190 0.5670 0.5500 0.5260
985.195885 0.4901 0.4471 0.4191 0.3831 0.3651
989.570052 0.2949 0.2360 0.2200 0.2160 0.1910
993.944219 0.1750 0.1521 0.1321 0.1230 0.1200
998.318386 0.1080 0.1000 0.0950 0.0910 0.0860
1002.692553 0.0800 0.0780 0.0780 0.0760 0.0760
1007.066721 0.0780 0.0780 0.0790 0.0820 0.0860
1011.440888 0.0930 0.1000 0.1010 0.1010 0.1010
1015.815055 0.1000 0.1000 0.0980 0.0980 0.0950
1020.189222 0.0900 0.0790 0.0610 0.0411 0.0410
1024.563389 0.0490 0.0520 0.0520 0.0540 0.0560
1028.937556 0.0570 0.0640 0.0710 0.1019 0.1090
1033.311723 0.1230 0.1310 0.1350 0.1340 0.1310
1037.685890 0.1280 0.1200 0.1090 0.1040 0.0970
1042.060057 0.0890 0.0790 0.0730 0.0730 0.0720
1046.434225 0.0720 0.0720 0.0710 0.0710 0.0710
1050.808392 0.0730 0.0760 0.0790 0.0830 0.1000
1055.182559 0.1090 0.1150 0.1310 0.1450 0.1520
1059.556726 0.1820 0.2260 0.2380 0.2520 0.2750
1063.930893 0.3019 0.3559 0.3939 0.4099 0.4389
1068.305060 0.4710 0.4930 0.5650 0.5970 0.6410
1072.679227 0.6640 0.6830 0.7189 0.7459 0.7779
1077.053394 0.7970 0.8160 0.8350 0.8610 0.8730
1081.427561 0.8940 0.8980 0.9040 0.9130 0.9170
1085.801728 0.9260 0.9340 0.9360 0.9430 0.9470
1090.175896 0.9520 0.9560 0.9600 0.9600 0.9630
1094.550063 0.9650 0.9670 0.9680 0.9710 0.9730
1098.924230 0.9730 0.9750 0.9790 0.9820 0.9830
1103.298397 0.9840 0.9870 0.9900 0.9930 0.9950
1107.672564 1.0000 1.0000 1.0000 1.0000 1.0000
1112.046731 1.0000 0.9980 0.9980 0.9980 0.9970
1116.420898 0.9950 0.9940 0.9940 0.9900 0.9890
1120.795065 0.9860 0.9830 0.9820 0.9800 0.9820
1125.169232 0.9820 0.9840 0.9840 0.9840 0.9830
1129.543399 0.9820 0.9820 0.9800 0.9790 0.9790
1133.917567 0.9780 0.9780 0.9780 0.9760 0.9750
1138.291734 0.9750 0.9730 0.9720 0.9710 0.9710
1142.665901 0.9690 0.9690 0.9680 0.9670 0.9670
1147.040068 0.9650 0.9650 0.9640 0.9640 0.9650
1151.414235 0.9670 0.9680 0.9680 0.9690 0.9690
1155.788402 0.9710 0.9710 0.9710 0.9710 0.9720
1160.162569 0.9720 0.9720 0.9720 0.9730 0.9730
1164.536736 0.9730 0.9730 0.9730 0.9730 0.9730
1168.910903 0.9750 0.9750 0.9760 0.9760 0.9780
1173.285070 0.9780 0.9780 0.9780 0.9780 0.9780
1177.659238 0.9790 0.9790 0.9780 0.9780 0.9790
1182.033405 0.9790 0.9790 0.9790 0.9790 0.9790
1186.407572 0.9800 0.9800 0.9800 0.9800 0.9790
1190.781739 0.9790 0.9790 0.9790 0.9790 0.9790
1195.155906 0.9790 0.9790 0.9790 0.9790 0.9790
1199.530073 0.9790 0.9790 0.9800 0.9800 0.9800
1203.904240 0.9800 0.9820 0.9820 0.9830 0.9820
1208.278407 0.9830 0.9830 0.9830 0.9830 0.9860
1212.652574 0.9860 0.9860 0.9860 0.9860 0.9860
1217.026741 0.9860 0.9860 0.9860 0.9860 0.9860
1221.400909 0.9860 0.9860 0.9860 0.9860 0.9870
1225.775076 0.9870 0.9870 0.9870 0.9870 0.9870
1230.149243 0.9870 0.9870 0.9870 0.9870 0.9870
1234.523410 0.9870 0.9860 0.9840 0.9840 0.9830
1238.897577 0.9820 0.9820 0.9820 0.9800 0.9800
1243.271744 0.9800 0.9800 0.9800 0.9790 0.9790
1247.645911 0.9780 0.9780 0.9780 0.9780 0.9780
1252.020078 0.9780 0.9780 0.9760 0.9760 0.9750
1256.394245 0.9750 0.9750 0.9730 0.9730 0.9730
1260.768412 0.9730 0.9730 0.9730 0.9720 0.9710
1265.142580 0.9690 0.9680 0.9650 0.9640 0.9630
1269.516747 0.9630 0.9610 0.9610 0.9610 0.9610
1273.890914 0.9610 0.9600 0.9600 0.9580 0.9580
1278.265081 0.9580 0.9580 0.9580 0.9580 0.9580
1282.639248 0.9580 0.9580 0.9600 0.9610 0.9610
1287.013415 0.9630 0.9630 0.9630 0.9630 0.9630
1291.387582 0.9630 0.9630 0.9630 0.9630 0.9630
1295.761749 0.9630 0.9610 0.9610 0.9610 0.9600
1300.135916 0.9600 0.9600 0.9600 0.9610 0.9610
1304.510083 0.9610 0.9610 0.9610 0.9610 0.9610
1308.884251 0.9610 0.9610 0.9610 0.9610 0.9610
1313.258418 0.9630 0.9610 0.9610 0.9630 0.9630
1317.632585 0.9630 0.9630 0.9630 0.9630 0.9630
1322.006752 0.9630 0.9630 0.9630 0.9630 0.9610
1326.380919 0.9600 0.9580 0.9580 0.9580 0.9600
1330.755086 0.9610 0.9610 0.9630 0.9630 0.9630
1335.129253 0.9610 0.9610 0.9610 0.9610 0.9630
1339.503420 0.9630 0.9630 0.9630 0.9630 0.9630
1343.877587 0.9630 0.9630 0.9630 0.9630 0.9630
1348.251755 0.9610 0.9610 0.9600 0.9600 0.9580
1352.625922 0.9580 0.9580 0.9580 0.9580 0.9570
1357.000089 0.9570 0.9570 0.9570 0.9570 0.9570
1361.374256 0.9580 0.9580 0.9580 0.9580 0.9580
1365.748423 0.9580 0.9580 0.9580 0.9580 0.9580
1370.122590 0.9580 0.9580 0.9580 0.9580 0.9580
1374.496757 0.9600 0.9600 0.9610 0.9630 0.9640
1378.870924 0.9640 0.9650 0.9670 0.9680 0.9680
1383.245091 0.9670 0.9640 0.9630 0.9580 0.9560
1387.619258 0.9490 0.9460 0.9450 0.9380 0.9340
1391.993426 0.9270 0.9210 0.9170 0.9130 0.9090
1396.367593 0.9020 0.8950 0.8930 0.8910 0.8790
1400.741760 0.8650 0.8540 0.8390 0.8340 0.8170
1405.115927 0.8080 0.7970 0.7800 0.7680 0.7521
1409.490094 0.7430 0.7240 0.7090 0.6930 0.6840
1413.864261 0.6780 0.6680 0.6640 0.6630 0.6610
1418.238428 0.6610 0.6630 0.6650 0.6690 0.6760
1422.612595 0.6830 0.6930 0.6940 0.7040 0.7120
1426.986762 0.7190 0.7260 0.7280 0.7280 0.7280
1431.360929 0.7260 0.7230 0.7160 0.7090 0.6970
1435.735097 0.6910 0.6890 0.6780 0.6500 0.5911
1440.109264 0.5890 0.6299 0.6709 0.6730 0.6820
1444.483431 0.6890 0.6970 0.7010 0.7020 0.7040
1448.857598 0.7040 0.7050 0.7060 0.7060 0.7080
1453.231765 0.7080 0.7080 0.7090 0.7090 0.7090
1457.605932 0.7130 0.7260 0.7430 0.7600 0.7690
1461.980099 0.7980 0.8020 0.8130 0.8190 0.8320
1466.354266 0.8360 0.8470 0.8490 0.8490 0.8500
1470.728433 0.8500 0.8530 0.8540 0.8600 0.8650
1475.102600 0.8720 0.8760 0.8820 0.8930 0.8940
1479.476768 0.9000 0.9050 0.9130 0.9230 0.9230
1483.850935 0.9260 0.9300 0.9340 0.9350 0.9360
1488.225102 0.9410 0.9420 0.9430 0.9450 0.9470
1492.599269 0.9490 0.9500 0.9520 0.9530 0.9540
1496.973436 0.9540 0.9560 0.9570 0.9580 0.9580
1501.347603 0.9600 0.9600 0.9580 0.9580 0.9570
1505.721770 0.9570 0.9570 0.9570 0.9580 0.9600
1510.095937 0.9600 0.9610 0.9630 0.9640 0.9640
1514.470104 0.9640 0.9630 0.9630 0.9630 0.9630
1518.844271 0.9630 0.9610 0.9600 0.9600 0.9610
1523.218439 0.9610 0.9630 0.9610 0.9610 0.9610
1527.592606 0.9630 0.9630 0.9630 0.9630 0.9630
1531.966773 0.9630 0.9630 0.9630 0.9610 0.9610
1536.340940 0.9600 0.9600 0.9580 0.9580 0.9570
1540.715107 0.9570 0.9580 0.9580 0.9580 0.9580
1545.089274 0.9580 0.9580 0.9580 0.9580 0.9580
1549.463441 0.9580 0.9580 0.9580 0.9570 0.9570
1553.837608 0.9570 0.9570 0.9570 0.9560 0.9560
1558.211775 0.9560 0.9560 0.9560 0.9560 0.9560
1562.585942 0.9560 0.9570 0.9570 0.9570 0.9570
1566.960110 0.9570 0.9560 0.9560 0.9560 0.9560
1571.334277 0.9560 0.9560 0.9560 0.9560 0.9560
1575.708444 0.9560 0.9560 0.9560 0.9560 0.9560
1580.082611 0.9560 0.9570 0.9570 0.9560 0.9560
1584.456778 0.9560 0.9560 0.9560 0.9560 0.9540
1588.830945 0.9540 0.9540 0.9540 0.9530 0.9530
1593.205112 0.9530 0.9500 0.9470 0.9310 0.9270
1597.579279 0.9310 0.9410 0.9420 0.9520 0.9560
1601.953446 0.9560 0.9540 0.9530 0.9530 0.9530
1606.327613 0.9530 0.9520 0.9520 0.9520 0.9520
1610.701781 0.9520 0.9520 0.9520 0.9520 0.9520
1615.075948 0.9500 0.9490 0.9490 0.9470 0.9470
1619.450115 0.9470 0.9470 0.9470 0.9460 0.9450
1623.824282 0.9430 0.9430 0.9420 0.9410 0.9410
1628.198449 0.9390 0.9380 0.9350 0.9320 0.9310
1632.572616 0.9300 0.9300 0.9300 0.9300 0.9300
1636.946783 0.9310 0.9340 0.9340 0.9350 0.9360
1641.320950 0.9360 0.9390 0.9390 0.9390 0.9420
1645.695117 0.9430 0.9450 0.9450 0.9460 0.9460
1650.069285 0.9460 0.9450 0.9450 0.9430 0.9430
1654.443452 0.9450 0.9460 0.9470 0.9490 0.9490
1658.817619 0.9490 0.9490 0.9490 0.9460 0.9460
1663.191786 0.9460 0.9460 0.9460 0.9460 0.9460
1667.565953 0.9460 0.9460 0.9460 0.9460 0.9460
1671.940120 0.9460 0.9470 0.9470 0.9460 0.9460
1676.314287 0.9470 0.9470 0.9470 0.9470 0.9470
1680.688454 0.9460 0.9450 0.9430 0.9420 0.9420
1685.062621 0.9420 0.9420 0.9420 0.9410 0.9390
1689.436788 0.9380 0.9350 0.9350 0.9340 0.9340
1693.810956 0.9310 0.9280 0.9240 0.9230 0.9210
1698.185123 0.9190 0.9160 0.9150 0.9120 0.9060
1702.559290 0.9040 0.9040 0.9010 0.8970 0.8930
1706.933457 0.8910 0.8870 0.8830 0.8800 0.8790
1711.307624 0.8710 0.8650 0.8600 0.8540 0.8500
1715.681791 0.8450 0.8380 0.8340 0.8310 0.8240
1720.055958 0.8240 0.8160 0.8130 0.8060 0.8010
1724.430125 0.7950 0.7940 0.7860 0.7830 0.7780
1728.804292 0.7760 0.7750 0.7690 0.7650 0.7610
1733.178459 0.7580 0.7570 0.7540 0.7530 0.7530
1737.552627 0.7530 0.7530 0.7530 0.7530 0.7520
1741.926794 0.7520 0.7520 0.7530 0.7540 0.7540
1746.300961 0.7560 0.7570 0.7570 0.7580 0.7580
1750.675128 0.7580 0.7580 0.7600 0.7600 0.7600
1755.049295 0.7610 0.7640 0.7680 0.7710 0.7750
1759.423462 0.7800 0.7870 0.7970 0.8150 0.8260
1763.797629 0.8350 0.8520 0.8650 0.8930 0.9060
1768.171796 0.9060 0.9010 0.8940 0.8710 0.8500
1772.545963 0.8340 0.8190 0.8130 0.8050 0.7831
1776.920130 0.7760 0.7720 0.7720 0.7730 0.7750
1781.294298 0.7760 0.7800 0.7840 0.7940 0.7970
1785.668465 0.8020 0.8080 0.8150 0.8210 0.8270
1790.042632 0.8310 0.8350 0.8390 0.8500 0.8520
1794.416799 0.8530 0.8570 0.8610 0.8640 0.8670
1798.790966 0.8710 0.8720 0.8750 0.8780 0.8820
1803.165133 0.8860 0.8860 0.8910 0.8910 0.8930
1807.539300 0.8950 0.8980 0.9000 0.9010 0.9020
1811.913467 0.9050 0.9080 0.9080 0.9080 0.9090
1816.287634 0.9100 0.9100 0.9100 0.9120 0.9120
1820.661801 0.9120 0.9120 0.9120 0.9120 0.9120
1825.035969 0.9120 0.9100 0.9100 0.9120 0.9100
1829.410136 0.9100 0.9100 0.9100 0.9100 0.9090
1833.784303 0.9090 0.9080 0.9080 0.9060 0.9060
1838.158470 0.9060 0.9060 0.9060 0.9050 0.9050
1842.532637 0.9050 0.9050 0.9050 0.9050 0.9050
1846.906804 0.9050 0.9050 0.9040 0.9040 0.9020
1851.280971 0.9010 0.8980 0.8970 0.8940 0.8930
1855.655138 0.8910 0.8830 0.8760 0.8690 0.8530
1860.029305 0.8450 0.8210 0.8020 0.7721 0.7540
1864.403472 0.7349 0.7060 0.7061 0.7630 0.7630
1868.777640 0.7610 0.7600 0.7580 0.7470 0.7380
1873.151807 0.7280 0.7240 0.7150 0.7080 0.6800
1877.525974 0.6610 0.6520 0.6450 0.6200 0.6020
1881.900141 0.5800 0.5690 0.5600 0.5410 0.5300
1886.274308 0.5200 0.5040 0.4870 0.4830 0.4650
1890.648475 0.4309 0.4080 0.3900 0.3790 0.3680
1895.022642 0.3680 0.3760 0.4170 0.4380 0.4570
1899.396809 0.4800 0.4951 0.5191 0.5460 0.5680
1903.770976 0.5750 0.5910 0.6080 0.6190 0.6340
1908.145143 0.6500 0.6680 0.6780 0.6930 0.7060
1912.519311 0.7270 0.7410 0.7470 0.7580 0.7670
1916.893478 0.7750 0.7790 0.7870 0.7900 0.7970
1921.267645 0.8240 0.8580 0.8720 0.8730 0.8760
1925.641812 0.8780 0.8790 0.8800 0.8820 0.8820
1930.015979 0.8830 0.8830 0.8710 0.8311 0.8320
1934.390146 0.8580 0.8630 0.8681 0.9130 0.9240
1938.764313 0.9320 0.9320 0.9340 0.9340 0.9340
1943.138480 0.9340 0.9340 0.9340 0.9340 0.9340
1947.512647 0.9340 0.9320 0.9320 0.9320 0.9320
1951.886815 0.9320 0.9320 0.9320 0.9320 0.9340
1956.260982 0.9340 0.9350 0.9360 0.9380 0.9380
1960.635149 0.9390 0.9350 0.9350 0.9350 0.9350
1965.009316 0.9350 0.9350 0.9350 0.9360 0.9380
1969.383483 0.9390 0.9410 0.9410 0.9410 0.9420
1973.757650 0.9430 0.9430 0.9450 0.9460 0.9460
1978.131817 0.9470 0.9470 0.9490 0.9490 0.9500
1982.505984 0.9500 0.9500 0.9520 0.9520 0.9520
1986.880151 0.9520 0.9530 0.9530 0.9540 0.9540
1991.254318 0.9540 0.9540 0.9540 0.9540 0.9540
1995.628486 0.9540 0.9540 0.9540 0.9540 0.9540
2000.002653 0.9540 0.9540 0.9540 0.9540 0.9540
2004.376820 0.9540 0.9540 0.9540 0.9540 0.9535
2008.750987 0.9530 0.9525 0.9520 0.9505 0.9490
2013.125154 0.9475 0.9460 0.9455 0.9450 0.9429
2017.499321 0.9409 0.9384 0.9360 0.9355 0.9348
2021.873488 0.9308 0.9269 0.9239 0.9209 0.9184
2026.247655 0.9159 0.9139 0.9118 0.9083 0.9048
2030.621822 0.9013 0.8976 0.8901 0.8827 0.8777
2034.995989 0.8729 0.8709 0.8688 0.8663 0.8637
2039.370157 0.8597 0.8554 0.8469 0.8383 0.8288
2043.744324 0.8177 0.7876 0.7599 0.7584 0.7588
2048.118491 0.7813 0.8017 0.7977 0.7936 0.7885
2052.492658 0.7829 0.7724 0.7626 0.7591 0.7553
2056.866825 0.7482 0.7407 0.7281 0.7161 0.7081
2061.240992 0.7004 0.6954 0.6900 0.6810 0.6724
2065.615159 0.6674 0.6625 0.6580 0.6535 0.6489
2069.989326 0.6444 0.6399 0.6359 0.6354 0.6351
2074.363493 0.6356 0.6361 0.6371 0.6385 0.6420
2078.737660 0.6455 0.6490 0.6524 0.6554 0.6593
2083.111828 0.6683 0.6771 0.6846 0.6910 0.6910
2087.485995 0.6901 0.6846 0.6785 0.6700 0.6611
2091.860162 0.6501 0.6355 0.6039 0.5715 0.5350
2096.234329 0.4985 0.4620 0.4320 0.4320 0.4409
2100.608496 0.4899 0.5390 0.5880 0.6371 0.6866
2104.982663 0.7262 0.7272 0.7280 0.7280 0.7272
2109.356830 0.7232 0.7179 0.7079 0.6963 0.6788
2113.730997 0.6648 0.6638 0.6639 0.6679 0.6718
2118.105164 0.6753 0.6789 0.6829 0.6884 0.6995
2122.479331 0.7112 0.7247 0.7406 0.7642 0.7831
2126.853499 0.7876 0.7926 0.7991 0.8079 0.8239
2131.227666 0.8385 0.8485 0.8583 0.8679 0.8765
2135.601833 0.8825 0.8877 0.8908 0.8936 0.8962
2139.976000 0.8991 0.9031 0.9068 0.9098 0.9117
2144.350167 0.9107 0.9097 0.9087 0.9076 0.9061
2148.724334 0.9046 0.9031 0.9017 0.9007 0.8990
2153.098501 0.8955 0.8924 0.8904 0.8883 0.8858
2157.472668 0.8834 0.8814 0.8794 0.8774 0.8749
2161.846835 0.8714 0.8684 0.8664 0.8653 0.8663
2166.221002 0.8676 0.8696 0.8716 0.8736 0.8752
2170.595170 0.8757 0.8776 0.8826 0.8875 0.8920
2174.969337 0.8974 0.9044 0.9104 0.9144 0.9187
2179.343504 0.9237 0.9270 0.9270 0.9253 0.9203
2183.717671 0.9125 0.8995 0.8877 0.8782 0.8692
2188.091838 0.8612 0.8518 0.8398 0.8145 0.7651
2192.466005 0.7312 0.7237 0.7394 0.7939 0.8361
2196.840172 0.8576 0.8712 0.8717 0.8722 0.8727
2201.214339 0.8730 0.8730 0.8740 0.8765 0.8782
2205.588506 0.8787 0.8790 0.8790 0.8792 0.8797
2209.962674 0.8804 0.8814 0.8824 0.8834 0.8860
2214.336841 0.8911 0.8952 0.8982 0.9010 0.9035
2218.711008 0.9058 0.9078 0.9090 0.9090 0.9084
2223.085175 0.9069 0.9033 0.8968 0.8926 0.8916
2227.459342 0.8914 0.8924 0.8939 0.8959 0.8981
2231.833509 0.9006 0.9033 0.9063 0.9096 0.9131
2236.207676 0.9152 0.9157 0.9162 0.9167 0.9177
2240.581843 0.9192 0.9216 0.9251 0.9281 0.9307
2244.956010 0.9325 0.9335 0.9342 0.9347 0.9352
2249.330177 0.9357 0.9372 0.9397 0.9415 0.9425
2253.704345 0.9435 0.9445 0.9450 0.9450 0.9452
2258.078512 0.9457 0.9460 0.9460 0.9460 0.9460
2262.452679 0.9460 0.9460 0.9457 0.9452 0.9450
2266.826846 0.9450 0.9445 0.9435 0.9430 0.9430
2271.201013 0.9427 0.9422 0.9412 0.9397 0.9390
2275.575180 0.9390 0.9387 0.9382 0.9380 0.9380
2279.949347 0.9375 0.9365 0.9357 0.9352 0.9347
2284.323514 0.9342 0.9335 0.9325 0.9317 0.9312
2288.697681 0.9307 0.9302 0.9295 0.9284 0.9277
2293.071848 0.9272 0.9262 0.9247 0.9237 0.9232
2297.446016 0.9224 0.9214 0.9207 0.9202 0.9197
2301.820183 0.9192 0.9173 0.9143 0.9127 0.9122
2306.194350 0.9114 0.9104 0.9094 0.9084 0.9068
2310.568517 0.9048 0.9002 0.8937 0.8818 0.8661
2314.942684 0.8600 0.8600 0.8750 0.8995 0.9114
2319.316851 0.9155 0.9188 0.9218 0.9258 0.9303
2323.691018 0.9338 0.9369 0.9383 0.9388 0.9390
2328.065185 0.9390 0.9396 0.9406 0.9410 0.9410
2332.439352 0.9410 0.9410 0.9413 0.9418 0.9423
2336.813519 0.9428 0.9430 0.9430 0.9430 0.9430
2341.187687 0.9430 0.9430 0.9430 0.9430 0.9430
2345.561854 0.9430 0.9430 0.9430 0.9430 0.9430
2349.936021 0.9430 0.9430 0.9437 0.9447 0.9450
2354.310188 0.9450 0.9443 0.9433 0.9430 0.9430
2358.684355 0.9427 0.9422 0.9420 0.9420 0.9420
2363.058522 0.9420 0.9420 0.9420 0.9420 0.9420
2367.432689 0.9420 0.9420 0.9420 0.9420 0.9416
2371.806856 0.9411 0.9403 0.9393 0.9390 0.9390
2376.181023 0.9390 0.9390 0.9390 0.9390 0.9386
2380.555190 0.9381 0.9373 0.9363 0.9360 0.9360
2384.929358 0.9367 0.9377 0.9380 0.9380 0.9384
2389.303525 0.9389 0.9390 0.9390 0.9390 0.9390
2393.677692 0.9397 0.9408 0.9414 0.9419 0.9424
2398.051859 0.9429 0.9438 0.9448 0.9454 0.9459
2402.426026 0.9476 0.9496 0.9508 0.9518 0.9524
2406.800193 0.9529 0.9530 0.9530 0.9534 0.9539
2411.174360 0.9540 0.9540 0.9548 0.9558 0.9560
2415.548527 0.9560 0.9560 0.9560 0.9552 0.9542
2419.922694 0.9540 0.9540 0.9536 0.9531 0.9526
2424.296861 0.9521 0.9512 0.9502 0.9496 0.9491
2428.671029 0.9478 0.9463 0.9456 0.9451 0.9442
2433.045196 0.9432 0.9426 0.9421 0.9408 0.9392
2437.419363 0.9377 0.9362 0.9356 0.9351 0.9337
2441.793530 0.9322 0.9303 0.9283 0.9276 0.9271
2446.167697 0.9270 0.9270 0.9266 0.9261 0.9260
2450.541864 0.9260 0.9251 0.9241 0.9236 0.9231
2454.916031 0.9221 0.9211 0.9206 0.9201 0.9196
2459.290198 0.9191 0.9146 0.9096 0.9077 0.9062
2463.664365 0.9033 0.9003 0.8969 0.8934 0.8917
2468.038532 0.8902 0.8904 0.8909 0.8937 0.8967
2472.412700 0.8993 0.9018 0.9038 0.9058 0.9074
2476.786867 0.9089 0.9085 0.9080 0.9062 0.9042
2481.161034 0.9012 0.8982 0.8948 0.8913 0.8892
2485.535201 0.8872 0.8865 0.8860 0.8860 0.8860
2489.909368 0.8874 0.8889 0.8899 0.8909 0.8919
2494.283535 0.8929 0.8930 0.8930 0.8930 0.8930
2498.657702 0.8930 0.8930 0.8916 0.8901 0.8900
2503.031869 0.8900 0.8914 0.8929 0.8940 0.8950
2507.406036 0.8965 0.8980 0.8995 0.9010 0.9035
2511.780204 0.9060 0.9090 0.9120 0.9125 0.9130
2516.154371 0.9140 0.9150 0.9155 0.9160 0.9165
2520.528538 0.9170 0.9180 0.9190 0.9195 0.9200
2524.902705 0.9200 0.9200 0.9200 0.9200 0.9205
2529.276872 0.9210 0.9210 0.9210 0.9220 0.9230
2533.651039 0.9235 0.9240 0.9255 0.9270 0.9270
2538.025206 0.9271 0.9296 0.9320 0.9320 0.9321
2542.399373 0.9336 0.9351 0.9366 0.9381 0.9396
2546.773540 0.9410 0.9415 0.9420 0.9425 0.9431
2551.147707 0.9441 0.9450 0.9455 0.9460 0.9460
2555.521875 0.9460 0.9460 0.9460 0.9460 0.9460
2559.896042 0.9460 0.9460 0.9465 0.9471 0.9486
2564.270209 0.9501 0.9511 0.9520 0.9525 0.9530
2568.644376 0.9535 0.9541 0.9551 0.9561 0.9571
2573.018543 0.9583 0.9613 0.9640 0.9640 0.9640
2577.392710 0.9640 0.9641 0.9646 0.9650 0.9650
2581.766877 0.9649 0.9644 0.9640 0.9640 0.9640
2586.141044 0.9640 0.9638 0.9623 0.9610 0.9610
2590.515211 0.9608 0.9593 0.9577 0.9557 0.9539
2594.889378 0.9534 0.9527 0.9507 0.9490 0.9490
2599.263546 0.9487 0.9467 0.9445 0.9410 0.9375
2603.637713 0.9340 0.9308 0.9293 0.9278 0.9268
2608.011880 0.9258 0.9243 0.9225 0.9195 0.9164
2612.386047 0.9129 0.9093 0.9053 0.9013 0.8973
2616.760214 0.8939 0.8934 0.8930 0.8930 0.8932
2621.134381 0.8942 0.8955 0.8980 0.9019 0.9119
2625.508548 0.9220 0.9325 0.9416 0.9446 0.9470
2629.882715 0.9470 0.9452 0.9367 0.9292 0.9257
2634.256882 0.9222 0.9187 0.9147 0.9087 0.9040
2638.631049 0.9040 0.9042 0.9052 0.9063 0.9078
2643.005217 0.9098 0.9133 0.9165 0.9185 0.9201
2647.379384 0.9206 0.9212 0.9223 0.9235 0.9255
2651.753551 0.9279 0.9314 0.9349 0.9384 0.9410
2656.127718 0.9410 0.9415 0.9435 0.9451 0.9456
2660.501885 0.9461 0.9466 0.9473 0.9483 0.9494
2664.876052 0.9509 0.9523 0.9533 0.9543 0.9553
2669.250219 0.9561 0.9566 0.9571 0.9576 0.9584
2673.624386 0.9599 0.9613 0.9623 0.9631 0.9636
2677.998553 0.9641 0.9646 0.9650 0.9650 0.9653
2682.372720 0.9663 0.9670 0.9670 0.9670 0.9670
2686.746888 0.9670 0.9670 0.9670 0.9670 0.9670
2691.121055 0.9670 0.9670 0.9670 0.9670 0.9670
2695.495222 0.9670 0.9670 0.9670 0.9670 0.9670
2699.869389 0.9670 0.9670 0.9670 0.9670 0.9670
2704.243556 0.9670 0.9670 0.9666 0.9656 0.9650
2708.617723 0.9650 0.9650 0.9650 0.9650 0.9650
2712.991890 0.9648 0.9643 0.9640 0.9640 0.9638
2717.366057 0.9633 0.9630 0.9630 0.9626 0.9616
2721.740224 0.9608 0.9603 0.9600 0.9600 0.9600
2726.114391 0.9600 0.9596 0.9586 0.9580 0.9580
2730.488559 0.9580 0.9580 0.9580 0.9580 0.9580
2734.862726 0.9580 0.9584 0.9594 0.9600 0.9600
2739.236893 0.9602 0.9607 0.9614 0.9624 0.9630
2743.611060 0.9630 0.9630 0.9630 0.9630 0.9630
2747.985227 0.9632 0.9637 0.9640 0.9640 0.9640
2752.359394 0.9640 0.9642 0.9647 0.9650 0.9650
2756.733561 0.9650 0.9650 0.9648 0.9643 0.9638
2761.107728 0.9633 0.9630 0.9630 0.9630 0.9630
2765.481895 0.9625 0.9615 0.9610 0.9610 0.9610
2769.856062 0.9610 0.9610 0.9610 0.9608 0.9603
2774.230230 0.9600 0.9600 0.9600 0.9600 0.9600
2778.604397 0.9600 0.9600 0.9600 0.9600 0.9600
2782.978564 0.9600 0.9600 0.9595 0.9585 0.9580
2787.352731 0.9580 0.9580 0.9580 0.9580 0.9580
2791.726898 0.9580 0.9580 0.9580 0.9580 0.9580
2796.101065 0.9580 0.9580 0.9580 0.9580 0.9580
2800.475232 0.9580 0.9580 0.9580 0.9580 0.9580
2804.849399 0.9580 0.9577 0.9572 0.9570 0.9570
2809.223566 0.9570 0.9570 0.9567 0.9562 0.9560
2813.597734 0.9560 0.9554 0.9544 0.9534 0.9524
2817.971901 0.9520 0.9520 0.9514 0.9504 0.9485
2822.346068 0.9460 0.9441 0.9426 0.9411 0.9396
2826.720235 0.9381 0.9366 0.9357 0.9352 0.9318
2831.094402 0.9262 0.9213 0.9168 0.9088 0.8983
2835.468569 0.8928 0.8908 0.8888 0.8868 0.8826
2839.842736 0.8771 0.8716 0.8661 0.8603 0.8543
2844.216903 0.8455 0.8350 0.8288 0.8253 0.8224
2848.591070 0.8199 0.8109 0.7979 0.7921 0.7906
2852.965237 0.7900 0.7900 0.7890 0.7875 0.7870
2857.339405 0.7870 0.7867 0.7862 0.7850 0.7835
2861.713572 0.7814 0.7789 0.7701 0.7581 0.7500
2866.087739 0.7440 0.7387 0.7337 0.7171 0.6946
2870.461906 0.6724 0.6504 0.6292 0.6085 0.6020
2874.836073 0.6020 0.6047 0.6088 0.6351 0.6716
2879.210240 0.6968 0.7168 0.7344 0.7509 0.7612
2883.584407 0.7687 0.7710 0.7710 0.7560 0.7345
2887.958574 0.7085 0.6805 0.6618 0.6471 0.6423
2892.332741 0.6413 0.6399 0.6384 0.6380 0.6380
2896.706908 0.6366 0.6346 0.6329 0.6314 0.6299
2901.081076 0.6284 0.6262 0.6237 0.6215 0.6195
2905.455243 0.6179 0.6164 0.6134 0.6099 0.6060
2909.829410 0.6020 0.5972 0.5922 0.5880 0.5840
2914.203577 0.5804 0.5769 0.5745 0.5725 0.5701
2918.577744 0.5676 0.5662 0.5652 0.5631 0.5606
2922.951911 0.5592 0.5582 0.5599 0.5625 0.5705
2927.326078 0.5800 0.5851 0.5892 0.5939 0.5989
2931.700245 0.5972 0.5937 0.5851 0.5751 0.5663
2936.074412 0.5578 0.5389 0.5174 0.5130 0.5130
2940.448579 0.5377 0.5687 0.5782 0.5823 0.5830
2944.822747 0.5830 0.5789 0.5739 0.5693 0.5648
2949.196914 0.5640 0.5640 0.5673 0.5713 0.5724
2953.571081 0.5729 0.5730 0.5730 0.5738 0.5748
2957.945248 0.5754 0.5759 0.5815 0.5880 0.5945
2962.319415 0.6010 0.6084 0.6159 0.6217 0.6272
2966.693582 0.6293 0.6308 0.6314 0.6319 0.6316
2971.067749 0.6311 0.6263 0.6208 0.6131 0.6051
2975.441916 0.5967 0.5881 0.5822 0.5766 0.5556
2979.816083 0.5326 0.4776 0.4186 0.3777 0.3392
2984.190250 0.3163 0.2953 0.2917 0.2902 0.2556
2988.564418 0.2171 0.1758 0.1343 0.1219 0.1129
2992.938585 0.1035 0.0940 0.0744 0.0537 0.0469
2997.312752 0.0414 0.0369 0.0323 0.0292 0.0262
3001.686919 0.0214 0.0164 0.0146 0.0131 0.0125
3006.061086 0.0120 0.0111 0.0101 0.0100 0.0100
3010.435253 0.0100 0.0100 0.0100 0.0100 0.0110
3014.809420 0.0120 0.0120 0.0120 0.0120 0.0120
3019.183587 0.0110 0.0100 0.0095 0.0090 0.0090
3023.557754 0.0090 0.0085 0.0080 0.0080 0.0080
3027.931921 0.0080 0.0080 0.0085 0.0090 0.0095
3032.306089 0.0100 0.0100 0.0100 0.0110 0.0120
3036.680256 0.0120 0.0120 0.0120 0.0120 0.0120
3041.054423 0.0120 0.0120 0.0120 0.0120 0.0120
3045.428590 0.0120 0.0120 0.0110 0.0100 0.0100
3049.802757 0.0100 0.0100 0.0100 0.0110 0.0120
3054.176924 0.0120 0.0120 0.0125 0.0130 0.0130
3058.551091 0.0130 0.0140 0.0151 0.0176 0.0201
3062.925258 0.0236 0.0271 0.0291 0.0310 0.0315
3067.299425 0.0322 0.0352 0.0381 0.0396 0.0411
3071.673592 0.0436 0.0460 0.0465 0.0472 0.0497
3076.047760 0.0521 0.0541 0.0561 0.0571 0.0581
3080.421927 0.0591 0.0602 0.0638 0.0671 0.0681
3084.796094 0.0693 0.0723 0.0757 0.0837 0.0915
3089.170261 0.0970 0.1050 0.1365 0.1673 0.1913
3093.544428 0.2164 0.2509 0.2822 0.2847 0.2840
3097.918595 0.2540 0.2214 0.1658 0.1151 0.0996
3102.292762 0.0840 0.0675 0.0503 0.0283 0.0090
3106.666929 0.0090 0.0185 0.0930 0.1615 0.1885
3111.041096 0.2136 0.2256 0.2361 0.2371 0.2357
3115.415264 0.2187 0.2001 0.1708 0.1432 0.1252
3119.789431 0.1094 0.1054 0.1014 0.0974 0.0938
3124.163598 0.0923 0.0908 0.0898 0.0879 0.0814
3128.537765 0.0751 0.0696 0.0649 0.0644 0.0640
3132.911932 0.0640 0.0643 0.0658 0.0671 0.0676
3137.286099 0.0687 0.0722 0.0753 0.0768 0.0782
3141.660266 0.0792 0.0819 0.0920 0.1079 0.1479
3146.034433 0.1833 0.1998 0.2140 0.2190 0.2256
3150.408600 0.2386 0.2578 0.3012 0.3453 0.3913
3154.782767 0.4303 0.4448 0.4595 0.4750 0.4961
3159.156935 0.5361 0.5744 0.6070 0.6408 0.6788
3163.531102 0.7155 0.7481 0.7754 0.7860 0.7952
3167.905269 0.8002 0.8091 0.8308 0.8526 0.8746
3172.279436 0.8928 0.8998 0.9064 0.9119 0.9164
3176.653603 0.9179 0.9199 0.9234 0.9267 0.9292
3181.027770 0.9314 0.9329 0.9341 0.9346 0.9351
3185.401937 0.9356 0.9363 0.9373 0.9384 0.9399
3189.776104 0.9410 0.9410 0.9411 0.9416 0.9420
3194.150271 0.9420 0.9420 0.9420 0.9420 0.9420
3198.524438 0.9419 0.9414 0.9410 0.9410 0.9410
3202.898606 0.9410 0.9410 0.9410 0.9410 0.9410
3207.272773 0.9410 0.9410 0.9410 0.9410 0.9410
3211.646940 0.9410 0.9410 0.9410 0.9410 0.9410
3216.021107 0.9407 0.9397 0.9390 0.9390 0.9390
3220.395274 0.9390 0.9390 0.9390 0.9388 0.9383
3224.769441 0.9380 0.9380 0.9380 0.9380 0.9380
3229.143608 0.9380 0.9376 0.9366 0.9360 0.9360
3233.517775 0.9360 0.9360 0.9360 0.9360 0.9358
3237.891942 0.9353 0.9350 0.9350 0.9350 0.9350
3242.266109 0.9350 0.9350 0.9352 0.9357 0.9360
3246.640277 0.9360 0.9360 0.9360 0.9364 0.9374
3251.014444 0.9380 0.9380 0.9380 0.9380 0.9380
3255.388611 0.9380 0.9380 0.9380 0.9380 0.9380
3259.762778 0.9380 0.9380 0.9380 0.9380 0.9380
3264.136945 0.9380 0.9380 0.9380 0.9380 0.9380
3268.511112 0.9382 0.9387 0.9390 0.9390 0.9390
3272.885279 0.9390 0.9390 0.9390 0.9390 0.9390
3277.259446 0.9388 0.9383 0.9380 0.9380 0.9380
3281.633613 0.9380 0.9380 0.9380 0.9375 0.9365
3286.007780 0.9360 0.9360 0.9360 0.9360 0.9360
3290.381948 0.9360 0.9360 0.9360 0.9360 0.9360
3294.756115 0.9360 0.9360 0.9360 0.9360 0.9360
3299.130282 0.9360 0.9360 0.9360 0.9360 0.9360
3303.504449 0.9357 0.9352 0.9350 0.9350 0.9350
3307.878616 0.9350 0.9350 0.9350 0.9347 0.9342
3312.252783 0.9340 0.9340 0.9340 0.9340 0.9340
3316.626950 0.9340 0.9340 0.9340 0.9340 0.9340
3321.001117 0.9340 0.9340 0.9340 0.9340 0.9340
3325.375284 0.9340 0.9340 0.9340 0.9340 0.9340
3329.749451 0.9340 0.9340 0.9340 0.9340 0.9340
3334.123619 0.9340 0.9334 0.9324 0.9320 0.9320
3338.497786 0.9320 0.9320 0.9317 0.9312 0.9310
3342.871953 0.9310 0.9310 0.9310 0.9307 0.9302
3347.246120 0.9300 0.9300 0.9300 0.9300 0.9294
3351.620287 0.9284 0.9277 0.9272 0.9270 0.9270
3355.994454 0.9267 0.9262 0.9260 0.9260 0.9254
3360.368621 0.9244 0.9237 0.9232 0.9224 0.9214
3364.742788 0.9210 0.9210 0.9207 0.9202 0.9200
3369.116955 0.9200 0.9197 0.9192 0.9184 0.9174
3373.491123 0.9164 0.9154 0.9144 0.9134 0.9127
3377.865290 0.9122 0.9120 0.9120 0.9113 0.9103
3382.239457 0.9097 0.9092 0.9090 0.9090 0.9087
3386.613624 0.9082 0.9080 0.9080 0.9073 0.9063
3390.987791 0.9057 0.9052 0.9040 0.9025 0.9017
3395.361958 0.9012 0.9010 0.9010 0.9010 0.9010
3399.736125 0.9007 0.9002 0.9000 0.9000 0.8993
3404.110292 0.8983 0.8980 0.8980 0.8980 0.8980
3408.484459 0.8976 0.8971 0.8970 0.8970 0.8974
3412.858626 0.8979 0.8980 0.8980 0.8980 0.8980
3417.232794 0.8980 0.8980 0.8980 0.8980 0.8980
3421.606961 0.8980 0.8987 0.8997 0.9000 0.9000
3425.981128 0.9000 0.9000 0.9000 0.9000 0.9004
3430.355295 0.9009 0.9014 0.9019 0.9020 0.9020
3434.729462 0.9020 0.9020 0.9028 0.9038 0.9040
3439.103629 0.9040 0.9040 0.9040 0.9044 0.9049
3443.477796 0.9050 0.9050 0.9054 0.9059 0.9060
3447.851963 0.9060 0.9068 0.9078 0.9080 0.9080
3452.226130 0.9084 0.9089 0.9090 0.9090 0.9094
3456.600297 0.9099 0.9100 0.9100 0.9100 0.9100
3460.974465 0.9108 0.9118 0.9124 0.9129 0.9130
3465.348632 0.9130 0.9130 0.9130 0.9138 0.9148
3469.722799 0.9150 0.9150 0.9150 0.9150 0.9150
3474.096966 0.9150 0.9150 0.9150 0.9154 0.9159
3478.471133 0.9160 0.9160 0.9160 0.9160 0.9164
3482.845300 0.9169 0.9170 0.9170 0.9179 0.9189
3487.219467 0.9194 0.9199 0.9200 0.9200 0.9204
3491.593634 0.9209 0.9219 0.9229 0.9230 0.9230
3495.967801 0.9234 0.9239 0.9249 0.9259 0.9260
3500.341968 0.9260 0.9264 0.9269 0.9270 0.9270
3504.716136 0.9274 0.9279 0.9280 0.9280 0.9289
3509.090303 0.9299 0.9300 0.9300 0.9305 0.9310
3513.464470 0.9310 0.9310 0.9310 0.9310 0.9315
3517.838637 0.9320 0.9320 0.9320 0.9329 0.9339
3522.212804 0.9340 0.9340 0.9340 0.9340 0.9340
3526.586971 0.9340 0.9340 0.9340 0.9340 0.9340
3530.961138 0.9340 0.9340 0.9340 0.9340 0.9340
3535.335305 0.9340 0.9340 0.9340 0.9345 0.9350
3539.709472 0.9345 0.9340 0.9345 0.9350 0.9350
3544.083639 0.9350 0.9350 0.9350 0.9355 0.9360
3548.457807 0.9360 0.9360 0.9370 0.9380 0.9380
3552.831974 0.9380 0.9380 0.9380 0.9380 0.9380
3557.206141 0.9380 0.9380 0.9380 0.9380 0.9370
3561.580308 0.9360 0.9360 0.9360 0.9370 0.9380
3565.954475 0.9380 0.9380 0.9380 0.9380 0.9380
3570.328642 0.9380 0.9385 0.9390 0.9400 0.9410
3574.702809 0.9410 0.9410 0.9410 0.9410 0.9410
3579.076976 0.9410 0.9400 0.9390 0.9390 0.9390
3583.451143 0.9390 0.9390 0.9390 0.9390 0.9390
3587.825310 0.9390 0.9390 0.9391 0.9401 0.9410
3592.199478 0.9410 0.9410 0.9410 0.9410 0.9410
3596.573645 0.9409 0.9399 0.9390 0.9390 0.9391
3600.947812 0.9401 0.9409 0.9399 0.9390 0.9390
3605.321979 0.9390 0.9390 0.9390 0.9390 0.9390
3609.696146 0.9390 0.9390 0.9390 0.9390 0.9390
3614.070313 0.9390 0.9390 0.9390 0.9390 0.9389
3618.444480 0.9384 0.9380 0.9380 0.9380 0.9380
3622.818647 0.9380 0.9380 0.9380 0.9380 0.9380
3627.192814 0.9380 0.9380 0.9380 0.9380 0.9380
3631.566981 0.9381 0.9386 0.9390 0.9390 0.9391
3635.941149 0.9401 0.9409 0.9399 0.9390 0.9390
3640.315316 0.9391 0.9402 0.9410 0.9410 0.9410
3644.689483 0.9410 0.9410 0.9410 0.9410 0.9410
3649.063650 0.9410 0.9410 0.9410 0.9410 0.9408
3653.437817 0.9398 0.9390 0.9390 0.9390 0.9390
3657.811984 0.9390 0.9390 0.9390 0.9390 0.9390
3662.186151 0.9390 0.9390 0.9390 0.9390 0.9390
3666.560318 0.9390 0.9390 0.9389 0.9384 0.9380
3670.934485 0.9380 0.9380 0.9380 0.9380 0.9380
3675.308653 0.9380 0.9380 0.9381 0.9386 0.9389
3679.682820 0.9384 0.9380 0.9380 0.9378 0.9368
3684.056987 0.9360 0.9360 0.9359 0.9354 0.9350
3688.431154 0.9350 0.9349 0.9344 0.9338 0.9328
3692.805321 0.9320 0.9320 0.9320 0.9320 0.9319
3697.179488 0.9314 0.9310 0.9310 0.9309 0.9304
3701.553655 0.9300 0.9300 0.9297 0.9287 0.9280
3705.927822 0.9280 0.9279 0.9274 0.9269 0.9264
3710.301989 0.9257 0.9247 0.9239 0.9234 0.9225
3714.676156 0.9210 0.9198 0.9193 0.9184 0.9164
3719.050324 0.9147 0.9137 0.9128 0.9123 0.9120
3723.424491 0.9120 0.9115 0.9100 0.9090 0.9090
3727.798658 0.9088 0.9083 0.9080 0.9080 0.9080
3732.172825 0.9080 0.9080 0.9080 0.9082 0.9087
3736.546992 0.9090 0.9090 0.9092 0.9097 0.9105
3740.921159 0.9120 0.9135 0.9150 0.9162 0.9167
3745.295326 0.9170 0.9170 0.9170 0.9170 0.9168
3749.669493 0.9163 0.9149 0.9119 0.9098 0.9093
3754.043660 0.9083 0.9063 0.9044 0.9029 0.9018
3758.417827 0.9013 0.9010 0.9010 0.9010 0.9010
3762.791995 0.9008 0.9003 0.9000 0.9000 0.9000
3767.166162 0.9000 0.9000 0.9000 0.8996 0.8986
3771.540329 0.8980 0.8980 0.8980 0.8980 0.8978
3775.914496 0.8973 0.8970 0.8970 0.8962 0.8942
3780.288663 0.8924 0.8909 0.8898 0.8893 0.8883
3784.662830 0.8868 0.8851 0.8831 0.8813 0.8798
3789.036997 0.8772 0.8732 0.8697 0.8667 0.8646
3793.411164 0.8636 0.8623 0.8608 0.8593 0.8578
3797.785331 0.8561 0.8541 0.8523 0.8508
##END=
