##TITLE=Propane, 2-methyl-
##JCAMP-DX=4.24
##DATA TYPE=INFRARED SPECTRUM
##CLASS=COBLENTZ
##ORIGIN=DOW CHEMICAL COMPANY
##OWNER=Copyright (C) 1987 by the Coblentz Society
Collection (C) 2018 copyright by the U.S. Secretary of Commerce
on behalf of the United States of America. All rights reserved.
##DATE=1964
##NAMES=isobutane
ISOBUTANE
##CAS REGISTRY NO=75-28-5
##MOLFORM=C4 H10
##SOURCE REFERENCE=COBLENTZ NO. 8872
##$NIST SOURCE=COBLENTZ
##$NIST IMAGE=cob8872
##SPECTROMETER/DATA SYSTEM=DOW KBr FOREPRISM-GRATING
##INSTRUMENT PARAMETERS=GRATING CHANGED AT 5.0, 7.5, 15.0 MICRON
##STATE=GAS (100 mmHg, N2 ADDED, TOTAL PRESSURE 600 mmHg)
NOTE: High partial pressure may produce unreliable values in the range
of 2500 to 3400 cm-1; see scan of original spectrum.
##PATH LENGTH=5 CM
##SAMPLING PROCEDURE=TRANSMISSION
##RESOLUTION=2
##DATA PROCESSING=DIGITIZED BY COBLENTZ SOCIETY (BATCH II) FROM HARD COPY
##XUNITS=1/CM
##YUNITS=TRANSMITTANCE
##XFACTOR=1.0
##YFACTOR=1
##FIRSTX=454
##LASTX=3800
##FIRSTY=0.8457
##MAXX=3800
##MINX=454
##MAXY=0.9388
##MINY=0
##NPOINTS=3347
##XYDATA=(X++(Y..Y))
454.000000 0.8457 0.8468 0.8475 0.8483 0.8490
459.000000 0.8498 0.8506 0.8515 0.8524 0.8533
464.000000 0.8542 0.8551 0.8560 0.8569 0.8578
469.000000 0.8586 0.8595 0.8603 0.8612 0.8620
474.000000 0.8629 0.8641 0.8653 0.8665 0.8677
479.000000 0.8689 0.8702 0.8715 0.8728 0.8742
484.000000 0.8756 0.8769 0.8783 0.8796 0.8810
489.000000 0.8823 0.8834 0.8845 0.8856 0.8866
494.000000 0.8877 0.8888 0.8899 0.8910 0.8919
499.000000 0.8928 0.8936 0.8945 0.8954 0.8962
504.000000 0.8964 0.8966 0.8967 0.8969 0.8971
509.000000 0.8972 0.8974 0.8975 0.8973 0.8969
514.000000 0.8965 0.8962 0.8958 0.8954 0.8951
519.000000 0.8947 0.8943 0.8939 0.8936 0.8932
524.000000 0.8924 0.8916 0.8909 0.8901 0.8894
529.000000 0.8887 0.8880 0.8873 0.8866 0.8859
534.000000 0.8851 0.8844 0.8837 0.8845 0.8823
539.000000 0.8816 0.8809 0.8801 0.8794 0.8787
544.000000 0.8779 0.8772 0.8765 0.8759 0.8755
549.000000 0.8750 0.8745 0.8741 0.8738 0.8736
554.000000 0.8734 0.8732 0.8730 0.8731 0.8735
559.000000 0.8738 0.8742 0.8746 0.8750 0.8754
564.000000 0.8758 0.8761 0.8775 0.8790 0.8801
569.000000 0.8812 0.8823 0.8834 0.8845 0.8856
574.000000 0.8871 0.8889 0.8907 0.8926 0.8944
579.000000 0.8955 0.8966 0.8977 0.8988 0.8999
584.000000 0.9006 0.9012 0.9017 0.9020 0.9023
589.000000 0.9026 0.9029 0.9032 0.9035 0.9037
594.000000 0.9037 0.9037 0.9037 0.9038 0.9038
599.000000 0.9038 0.9038 0.9038 0.9038 0.9035
604.000000 0.9031 0.9028 0.9025 0.9021 0.9015
609.000000 0.9008 0.9001 0.8994 0.8987 0.8980
614.000000 0.8973 0.8966 0.8960 0.8960 0.8960
619.000000 0.8960 0.8961 0.8961 0.8961 0.8962
624.000000 0.8966 0.8969 0.8972 0.8975 0.8979
629.000000 0.8986 0.8992 0.8998 0.9004 0.9011
634.000000 0.9017 0.9024 0.9030 0.9036 0.9043
639.000000 0.9049 0.9056 0.9062 0.9067 0.9072
644.000000 0.9076 0.9081 0.9082 0.9083 0.9085
649.000000 0.9085 0.9084 0.9084 0.9083 0.9082
654.000000 0.9082 0.9082 0.9081 0.9081 0.9080
659.000000 0.9080 0.9080 0.9078 0.9076 0.9074
664.000000 0.9073 0.9071 0.9083 0.9270 0.9388
669.000000 0.9384 0.9372 0.9349 0.9326 0.9285
674.000000 0.9250 0.9233 0.9217 0.9212 0.9201
679.000000 0.9189 0.9175 0.9162 0.9148 0.9135
684.000000 0.9119 0.9103 0.9088 0.9073 0.9059
689.000000 0.9044 0.9032 0.9021 0.9009 0.8998
694.000000 0.8987 0.8977 0.8967 0.8958 0.8948
699.000000 0.8939 0.8929 0.8920 0.8910 0.8901
704.000000 0.8892 0.8883 0.8874 0.8865 0.8856
709.000000 0.8847 0.8837 0.8828 0.8819 0.8810
714.000000 0.8802 0.8795 0.8787 0.8780 0.8773
719.000000 0.8765 0.8758 0.8750 0.8743 0.8736
724.000000 0.8728 0.8721 0.8713 0.8706 0.8699
729.000000 0.8691 0.8684 0.8677 0.8670 0.8663
734.000000 0.8657 0.8650 0.8644 0.8637 0.8630
739.000000 0.8624 0.8617 0.8610 0.8604 0.8598
744.000000 0.8592 0.8587 0.8582 0.8576 0.8571
749.000000 0.8565 0.8560 0.8557 0.8554 0.8551
754.000000 0.8548 0.8545 0.8542 0.8539 0.8536
759.000000 0.8533 0.8530 0.8527 0.8524 0.8521
764.000000 0.8519 0.8516 0.8513 0.8510 0.8508
769.000000 0.8505 0.8502 0.8500 0.8497 0.8494
774.000000 0.8492 0.8490 0.8490 0.8491 0.8491
779.000000 0.8491 0.8491 0.8491 0.8492 0.8492
784.000000 0.8487 0.8483 0.8479 0.8475 0.8471
789.000000 0.8455 0.8434 0.8390 0.8313 0.8134
794.000000 0.7955 0.7725 0.7726 0.7893 0.8157
799.000000 0.8422 0.8469 0.8472 0.8468 0.8464
804.000000 0.8456 0.8448 0.8442 0.8436 0.8431
809.000000 0.8426 0.8421 0.8420 0.8420 0.8420
814.000000 0.8421 0.8425 0.8428 0.8441 0.8454
819.000000 0.8467 0.8480 0.8494 0.8508 0.8523
824.000000 0.8535 0.8547 0.8554 0.8560 0.8565
829.000000 0.8571 0.8577 0.8583 0.8588 0.8594
834.000000 0.8597 0.8598 0.8595 0.8592 0.8588
839.000000 0.8585 0.8583 0.8582 0.8581 0.8580
844.000000 0.8595 0.8579 0.8578 0.8577 0.8576
849.000000 0.8575 0.8574 0.8574 0.8572 0.8571
854.000000 0.8569 0.8568 0.8567 0.8565 0.8564
859.000000 0.8562 0.8561 0.8560 0.8558 0.8557
864.000000 0.8555 0.8553 0.8551 0.8549 0.8547
869.000000 0.8546 0.8543 0.8541 0.8539 0.8537
874.000000 0.8535 0.8533 0.8531 0.8528 0.8525
879.000000 0.8523 0.8520 0.8517 0.8515 0.8505
884.000000 0.8490 0.8474 0.8458 0.8442 0.8413
889.000000 0.8375 0.8334 0.8290 0.8251 0.8212
894.000000 0.8173 0.8135 0.8095 0.8051 0.8007
899.000000 0.7963 0.7929 0.7896 0.7868 0.7856
904.000000 0.7844 0.7831 0.7819 0.7808 0.7823
909.000000 0.7808 0.7815 0.7823 0.7833 0.7843
914.000000 0.7854 0.7852 0.7844 0.7890 0.7824
919.000000 0.7815 0.7807 0.7801 0.7798 0.7810
924.000000 0.7802 0.7815 0.7845 0.7887 0.7933
929.000000 0.7979 0.8042 0.8112 0.8186 0.8259
934.000000 0.8300 0.8341 0.8382 0.8417 0.8438
939.000000 0.8460 0.8481 0.8502 0.8520 0.8530
944.000000 0.8541 0.8552 0.8563 0.8571 0.8577
949.000000 0.8583 0.8584 0.8584 0.8584 0.8584
954.000000 0.8584 0.8584 0.8585 0.8585 0.8585
959.000000 0.8584 0.8584 0.8583 0.8583 0.8582
964.000000 0.8582 0.8581 0.8581 0.8581 0.8580
969.000000 0.8580 0.8579 0.8579 0.8578 0.8578
974.000000 0.8577 0.8577 0.8577 0.8577 0.8578
979.000000 0.8578 0.8579 0.8579 0.8580 0.8580
984.000000 0.8581 0.8581 0.8582 0.8582 0.8583
989.000000 0.8583 0.8583 0.8583 0.8583 0.8584
994.000000 0.8584 0.8584 0.8584 0.8585 0.8587
999.000000 0.8588 0.8590 0.8591 0.8593 0.8594
1004.000000 0.8596 0.8597 0.8599 0.8600 0.8602
1009.000000 0.8633 0.8612 0.8619 0.8629 0.8638
1014.000000 0.8647 0.8656 0.8665 0.8674 0.8685
1019.000000 0.8694 0.8696 0.8699 0.8699 0.8694
1024.000000 0.8689 0.8684 0.8679 0.8674 0.8670
1029.000000 0.8665 0.8663 0.8662 0.8661 0.8660
1034.000000 0.8659 0.8658 0.8656 0.8655 0.8654
1039.000000 0.8652 0.8651 0.8649 0.8648 0.8646
1044.000000 0.8644 0.8643 0.8641 0.8639 0.8637
1049.000000 0.8636 0.8634 0.8632 0.8630 0.8629
1054.000000 0.8627 0.8625 0.8624 0.8622 0.8620
1059.000000 0.8619 0.8617 0.8616 0.8614 0.8612
1064.000000 0.8611 0.8609 0.8608 0.8606 0.8604
1069.000000 0.8603 0.8601 0.8600 0.8599 0.8598
1074.000000 0.8597 0.8596 0.8595 0.8594 0.8593
1079.000000 0.8592 0.8590 0.8589 0.8588 0.8587
1084.000000 0.8586 0.8585 0.8584 0.8583 0.8582
1089.000000 0.8581 0.8580 0.8579 0.8578 0.8579
1094.000000 0.8580 0.8580 0.8581 0.8582 0.8583
1099.000000 0.8583 0.8584 0.8585 0.8585 0.8586
1104.000000 0.8587 0.8588 0.8588 0.8590 0.8592
1109.000000 0.8593 0.8595 0.8597 0.8598 0.8600
1114.000000 0.8601 0.8603 0.8605 0.8606 0.8608
1119.000000 0.8610 0.8610 0.8610 0.8611 0.8611
1124.000000 0.8611 0.8611 0.8606 0.8601 0.8596
1129.000000 0.8591 0.8586 0.8580 0.8569 0.8559
1134.000000 0.8548 0.8537 0.8523 0.8508 0.8494
1139.000000 0.8477 0.8459 0.8441 0.8423 0.8405
1144.000000 0.8363 0.8317 0.8271 0.8223 0.8169
1149.000000 0.8114 0.8060 0.8004 0.7942 0.7880
1154.000000 0.7818 0.7757 0.7697 0.7574 0.7373
1159.000000 0.7172 0.6971 0.6770 0.6569 0.6391
1164.000000 0.6268 0.6154 0.6128 0.6109 0.6093
1169.000000 0.6072 0.5830 0.5515 0.5451 0.5420
1174.000000 0.5416 0.5417 0.5412 0.5427 0.5441
1179.000000 0.5462 0.5499 0.5636 0.5943 0.6250
1184.000000 0.6557 0.6864 0.7170 0.7477 0.7784
1189.000000 0.8091 0.8388 0.8429 0.8471 0.8491
1194.000000 0.8508 0.8524 0.8533 0.8542 0.8551
1199.000000 0.8560 0.8569 0.8575 0.8582 0.8588
1204.000000 0.8594 0.8599 0.8600 0.8601 0.8602
1209.000000 0.8603 0.8603 0.8603 0.8604 0.8604
1214.000000 0.8603 0.8601 0.8600 0.8598 0.8632
1219.000000 0.8601 0.8604 0.8608 0.8614 0.8620
1224.000000 0.8626 0.8631 0.8638 0.8645 0.8652
1229.000000 0.8657 0.8657 0.8657 0.8653 0.8645
1234.000000 0.8614 0.8601 0.8598 0.8597 0.8595
1239.000000 0.8593 0.8594 0.8595 0.8596 0.8597
1244.000000 0.8598 0.8598 0.8598 0.8598 0.8598
1249.000000 0.8597 0.8597 0.8596 0.8595 0.8593
1254.000000 0.8591 0.8589 0.8587 0.8585 0.8583
1259.000000 0.8581 0.8575 0.8570 0.8565 0.8560
1264.000000 0.8555 0.8549 0.8544 0.8539 0.8532
1269.000000 0.8525 0.8518 0.8511 0.8504 0.8498
1274.000000 0.8491 0.8484 0.8478 0.8472 0.8466
1279.000000 0.8461 0.8455 0.8449 0.8441 0.8430
1284.000000 0.8419 0.8408 0.8396 0.8385 0.8381
1289.000000 0.8380 0.8379 0.8384 0.8393 0.8398
1294.000000 0.8398 0.8398 0.8399 0.8393 0.8387
1299.000000 0.8374 0.8352 0.8329 0.8299 0.8267
1304.000000 0.8218 0.8169 0.8120 0.8071 0.8021
1309.000000 0.7964 0.7908 0.7850 0.7788 0.7727
1314.000000 0.7665 0.7590 0.7512 0.7427 0.7308
1319.000000 0.7048 0.6788 0.6528 0.6268 0.6105
1324.000000 0.6011 0.5914 0.5839 0.5826 0.5834
1329.000000 0.5848 0.5877 0.5737 0.5534 0.5331
1334.000000 0.5128 0.5104 0.5097 0.5163 0.5420
1339.000000 0.5659 0.5898 0.6137 0.6375 0.6583
1344.000000 0.6683 0.6769 0.6807 0.6825 0.6832
1349.000000 0.6815 0.6611 0.6319 0.6027 0.5735
1354.000000 0.5443 0.5151 0.4859 0.4567 0.4275
1359.000000 0.3983 0.3691 0.3387 0.3250 0.3130
1364.000000 0.3070 0.3052 0.3058 0.3119 0.3181
1369.000000 0.3224 0.3234 0.3231 0.3045 0.2822
1374.000000 0.2600 0.2460 0.2458 0.2457 0.2456
1379.000000 0.2275 0.2182 0.2171 0.2178 0.2218
1384.000000 0.2282 0.2376 0.2540 0.2857 0.3271
1389.000000 0.3688 0.4105 0.4523 0.4819 0.4856
1394.000000 0.4875 0.4107 0.3456 0.2806 0.2436
1399.000000 0.2428 0.7251 0.7330 0.7342 0.7337
1404.000000 0.7310 0.7229 0.7105 0.7081 0.7072
1409.000000 0.7075 0.7068 0.7098 0.7144 0.7221
1414.000000 0.7306 0.7395 0.7482 0.7562 0.7631
1419.000000 0.7700 0.7776 0.7856 0.7931 0.8001
1424.000000 0.8042 0.8079 0.8091 0.8096 0.8098
1429.000000 0.8074 0.8055 0.8027 0.7986 0.7945
1434.000000 0.7893 0.7839 0.7779 0.7713 0.7644
1439.000000 0.7554 0.7293 0.7032 0.6772 0.6511
1444.000000 0.6250 0.5989 0.5728 0.5467 0.5206
1449.000000 0.4945 0.4654 0.4436 0.4223 0.3976
1454.000000 0.3745 0.3467 0.3322 0.3236 0.3189
1459.000000 0.3148 0.3109 0.3078 0.3047 0.3022
1464.000000 0.3006 0.3002 0.3001 0.3005 0.3001
1469.000000 0.3102 0.3256 0.3595 0.3698 0.3856
1474.000000 0.4014 0.4039 0.4017 0.1309 0.0470
1479.000000 0.0459 0.0466 0.0870 0.2017 0.3165
1484.000000 0.3672 0.3990 0.4066 0.4116 0.4148
1489.000000 0.4155 0.4159 0.4159 0.4159 0.4169
1494.000000 0.4190 0.4241 0.4388 0.4553 0.4718
1499.000000 0.4883 0.5049 0.5214 0.5341 0.5701
1504.000000 0.5965 0.6403 0.6605 0.6687 0.6789
1509.000000 0.6895 0.7002 0.7127 0.7263 0.7428
1514.000000 0.7628 0.7729 0.7828 0.7920 0.8004
1519.000000 0.8084 0.8174 0.8268 0.8333 0.8388
1524.000000 0.8417 0.8430 0.8439 0.8453 0.8467
1529.000000 0.8481 0.8495 0.8507 0.8518 0.8530
1534.000000 0.8543 0.8556 0.8569 0.8582 0.8620
1539.000000 0.8618 0.8621 0.8609 0.8597 0.8584
1544.000000 0.8570 0.8561 0.8553 0.8546 0.8538
1549.000000 0.8532 0.8527 0.8527 0.8530 0.8533
1554.000000 0.8535 0.8538 0.8543 0.8548 0.8568
1559.000000 0.8580 0.8585 0.8585 0.8550 0.8526
1564.000000 0.8512 0.8505 0.8504 0.8510 0.8518
1569.000000 0.8526 0.8535 0.8534 0.8533 0.8537
1574.000000 0.8555 0.8572 0.8586 0.8587 0.8578
1579.000000 0.8570 0.8556 0.8535 0.8524 0.8515
1584.000000 0.8507 0.8503 0.8499 0.8496 0.8494
1589.000000 0.8492 0.8491 0.8490 0.8489 0.8488
1594.000000 0.8488 0.8487 0.8487 0.8487 0.8488
1599.000000 0.8488 0.8488 0.8488 0.8488 0.8490
1604.000000 0.8492 0.8493 0.8495 0.8497 0.8498
1609.000000 0.8500 0.8501 0.8502 0.8503 0.8503
1614.000000 0.8504 0.8505 0.8505 0.8506 0.8506
1619.000000 0.8507 0.8508 0.8510 0.8511 0.8512
1624.000000 0.8513 0.8514 0.8515 0.8516 0.8518
1629.000000 0.8520 0.8521 0.8523 0.8525 0.8522
1634.000000 0.8520 0.8517 0.8515 0.8513 0.8510
1639.000000 0.8511 0.8512 0.8513 0.8514 0.8514
1644.000000 0.8516 0.8519 0.8522 0.8526 0.8531
1649.000000 0.8539 0.8558 0.8587 0.8612 0.8597
1654.000000 0.8569 0.8532 0.8494 0.8465 0.8444
1659.000000 0.8448 0.8455 0.8463 0.8480 0.8500
1664.000000 0.8502 0.8504 0.8505 0.8507 0.8509
1669.000000 0.8511 0.8513 0.8515 0.8516 0.8516
1674.000000 0.8515 0.8514 0.8513 0.8513 0.8514
1679.000000 0.8514 0.8515 0.8517 0.8518 0.8518
1684.000000 0.8519 0.8516 0.8511 0.8506 0.8501
1689.000000 0.8496 0.8492 0.8488 0.8483 0.8479
1694.000000 0.8476 0.8474 0.8471 0.8469 0.8468
1699.000000 0.8470 0.8473 0.8474 0.8464 0.8453
1704.000000 0.8443 0.8433 0.8426 0.8427 0.8429
1709.000000 0.8430 0.8431 0.8432 0.8433 0.8435
1714.000000 0.8445 0.8459 0.8466 0.8467 0.8467
1719.000000 0.8464 0.8427 0.8410 0.8404 0.8399
1724.000000 0.8395 0.8400 0.8405 0.8415 0.8428
1729.000000 0.8441 0.8457 0.8478 0.8510 0.8528
1734.000000 0.8546 0.8552 0.8557 0.8554 0.8548
1739.000000 0.8541 0.8535 0.8529 0.8525 0.8523
1744.000000 0.8522 0.8525 0.8529 0.8533 0.8536
1749.000000 0.8539 0.8542 0.8532 0.8521 0.8504
1754.000000 0.8488 0.8480 0.8473 0.8470 0.8470
1759.000000 0.8470 0.8470 0.8471 0.8472 0.8473
1764.000000 0.8474 0.8476 0.8482 0.8495 0.8510
1769.000000 0.8525 0.8539 0.8553 0.8563 0.8572
1774.000000 0.8580 0.8582 0.8584 0.8585 0.8586
1779.000000 0.8586 0.8586 0.8586 0.8585 0.8585
1784.000000 0.8584 0.8583 0.8583 0.8583 0.8584
1789.000000 0.8584 0.8584 0.8583 0.8583 0.8583
1794.000000 0.8582 0.8582 0.8582 0.8581 0.8581
1799.000000 0.8581 0.8580 0.8580 0.8580 0.8579
1804.000000 0.8579 0.8579 0.8577 0.8575 0.8574
1809.000000 0.8572 0.8570 0.8569 0.8566 0.8561
1814.000000 0.8557 0.8553 0.8549 0.8544 0.8536
1819.000000 0.8528 0.8521 0.8513 0.8505 0.8498
1824.000000 0.8490 0.8482 0.8475 0.8469 0.8463
1829.000000 0.8465 0.8466 0.8467 0.8469 0.8472
1834.000000 0.8475 0.8476 0.8476 0.8477 0.8478
1839.000000 0.8480 0.8483 0.8485 0.8487 0.8488
1844.000000 0.8490 0.8492 0.8493 0.8496 0.8498
1849.000000 0.8500 0.8502 0.8502 0.8502 0.8503
1854.000000 0.8507 0.8510 0.8514 0.8518 0.8522
1859.000000 0.8526 0.8531 0.8535 0.8540 0.8545
1864.000000 0.8549 0.8553 0.8557 0.8560 0.8564
1869.000000 0.8568 0.8572 0.8575 0.8575 0.8576
1874.000000 0.8576 0.8576 0.8576 0.8576 0.8577
1879.000000 0.8577 0.8577 0.8577 0.8577 0.8577
1884.000000 0.8578 0.8578 0.8578 0.8578 0.8578
1889.000000 0.8579 0.8579 0.8579 0.8579 0.8579
1894.000000 0.8579 0.8579 0.8578 0.8577 0.8575
1899.000000 0.8574 0.8573 0.8572 0.8571 0.8570
1904.000000 0.8569 0.8567 0.8566 0.8566 0.8566
1909.000000 0.8565 0.8565 0.8565 0.8565 0.8564
1914.000000 0.8564 0.8564 0.8564 0.8564 0.8564
1919.000000 0.8565 0.8565 0.8565 0.8565 0.8565
1924.000000 0.8565 0.8566 0.8566 0.8566 0.8566
1929.000000 0.8566 0.8567 0.8567 0.8567 0.8566
1934.000000 0.8566 0.8566 0.8565 0.8565 0.8565
1939.000000 0.8565 0.8563 0.8560 0.8557 0.8555
1944.000000 0.8552 0.8549 0.8546 0.8545 0.8544
1949.000000 0.8543 0.8542 0.8541 0.8540 0.8538
1954.000000 0.8535 0.8532 0.8529 0.8526 0.8523
1959.000000 0.8520 0.8517 0.8514 0.8511 0.8507
1964.000000 0.8502 0.8497 0.8492 0.8487 0.8485
1969.000000 0.8487 0.8488 0.8490 0.8492 0.8493
1974.000000 0.8497 0.8501 0.8504 0.8510 0.8516
1979.000000 0.8523 0.8529 0.8535 0.8542 0.8549
1984.000000 0.8556 0.8563 0.8570 0.8577 0.8584
1989.000000 0.8591 0.8597 0.8597 0.8597 0.8597
1994.000000 0.8597 0.8594 0.8592 0.8590 0.8588
1999.000000 0.8588 0.8590 0.8592 0.8595 0.8596
2004.000000 0.8597 0.8598 0.8600 0.8602 0.8605
2009.000000 0.8607 0.8610 0.8612 0.8615 0.8617
2014.000000 0.8619 0.8618 0.8617 0.8616 0.8616
2019.000000 0.8615 0.8614 0.8613 0.8613 0.8612
2024.000000 0.8611 0.8610 0.8609 0.8608 0.8607
2029.000000 0.8606 0.8605 0.8605 0.8605 0.8605
2034.000000 0.8606 0.8606 0.8606 0.8606 0.8606
2039.000000 0.8606 0.8606 0.8606 0.8606 0.8606
2044.000000 0.8606 0.8606 0.8607 0.8607 0.8607
2049.000000 0.8607 0.8607 0.8607 0.8607 0.8607
2054.000000 0.8607 0.8607 0.8607 0.8607 0.8607
2059.000000 0.8606 0.8606 0.8606 0.8606 0.8606
2064.000000 0.8606 0.8605 0.8605 0.8605 0.8605
2069.000000 0.8604 0.8604 0.8603 0.8603 0.8602
2074.000000 0.8601 0.8600 0.8599 0.8598 0.8597
2079.000000 0.8596 0.8596 0.8595 0.8594 0.8593
2084.000000 0.8592 0.8591 0.8590 0.8589 0.8588
2089.000000 0.8587 0.8586 0.8585 0.8584 0.8582
2094.000000 0.8581 0.8579 0.8578 0.8577 0.8576
2099.000000 0.8574 0.8573 0.8571 0.8570 0.8569
2104.000000 0.8568 0.8566 0.8565 0.8563 0.8562
2109.000000 0.8560 0.8558 0.8556 0.8555 0.8553
2114.000000 0.8552 0.8550 0.8548 0.8546 0.8545
2119.000000 0.8543 0.8542 0.8540 0.8538 0.8536
2124.000000 0.8535 0.8534 0.8533 0.8532 0.8531
2129.000000 0.8529 0.8528 0.8527 0.8526 0.8526
2134.000000 0.8527 0.8527 0.8528 0.8528 0.8529
2139.000000 0.8531 0.8533 0.8535 0.8537 0.8539
2144.000000 0.8542 0.8544 0.8547 0.8549 0.8552
2149.000000 0.8551 0.8551 0.8547 0.8544 0.8541
2154.000000 0.8538 0.8534 0.8531 0.8524 0.8518
2159.000000 0.8511 0.8504 0.8497 0.8491 0.8488
2164.000000 0.8486 0.8483 0.8481 0.8479 0.8477
2169.000000 0.8475 0.8473 0.8470 0.8468 0.8468
2174.000000 0.8469 0.8470 0.8471 0.8472 0.8473
2179.000000 0.8474 0.8475 0.8477 0.8479 0.8483
2184.000000 0.8487 0.8492 0.8497 0.8505 0.8514
2189.000000 0.8523 0.8532 0.8541 0.8551 0.8560
2194.000000 0.8569 0.8578 0.8588 0.8595 0.8602
2199.000000 0.8606 0.8611 0.8612 0.8614 0.8614
2204.000000 0.8615 0.8615 0.8615 0.8615 0.8616
2209.000000 0.8616 0.8617 0.8616 0.8616 0.8615
2214.000000 0.8614 0.8613 0.8613 0.8612 0.8611
2219.000000 0.8610 0.8610 0.8610 0.8610 0.8609
2224.000000 0.8609 0.8609 0.8609 0.8608 0.8608
2229.000000 0.8608 0.8608 0.8607 0.8606 0.8605
2234.000000 0.8604 0.8603 0.8602 0.8600 0.8599
2239.000000 0.8598 0.8597 0.8596 0.8595 0.8594
2244.000000 0.8593 0.8591 0.8590 0.8589 0.8588
2249.000000 0.8586 0.8585 0.8582 0.8579 0.8576
2254.000000 0.8573 0.8570 0.8567 0.8564 0.8562
2259.000000 0.8559 0.8556 0.8553 0.8550 0.8547
2264.000000 0.8545 0.8542 0.8539 0.8536 0.8533
2269.000000 0.8530 0.8528 0.8526 0.8524 0.8522
2274.000000 0.8521 0.8519 0.8518 0.8517 0.8516
2279.000000 0.8514 0.8513 0.8511 0.8510 0.8508
2284.000000 0.8507 0.8506 0.8505 0.8506 0.8508
2289.000000 0.8510 0.8512 0.8513 0.8515 0.8516
2294.000000 0.8518 0.8520 0.8522 0.8523 0.8525
2299.000000 0.8533 0.8541 0.8548 0.8556 0.8563
2304.000000 0.8570 0.8577 0.8584 0.8590 0.8597
2309.000000 0.8603 0.8610 0.8617 0.8624 0.8630
2314.000000 0.8636 0.8641 0.8647 0.8652 0.8658
2319.000000 0.8663 0.8669 0.8674 0.8680 0.8684
2324.000000 0.8689 0.8693 0.8698 0.8702 0.8706
2329.000000 0.8707 0.8709 0.8709 0.8710 0.8709
2334.000000 0.8708 0.8707 0.8707 0.8706 0.8706
2339.000000 0.8704 0.8703 0.8700 0.8698 0.8694
2344.000000 0.8691 0.8687 0.8684 0.8680 0.8677
2349.000000 0.8673 0.8670 0.8666 0.8663 0.8661
2354.000000 0.8660 0.8670 0.8681 0.8692 0.8703
2359.000000 0.8713 0.8723 0.8728 0.8733 0.8734
2364.000000 0.8735 0.8731 0.8727 0.8720 0.8714
2369.000000 0.8707 0.8700 0.8691 0.8682 0.8673
2374.000000 0.8664 0.8653 0.8643 0.8632 0.8622
2379.000000 0.8611 0.8601 0.8589 0.8578 0.8567
2384.000000 0.8556 0.8544 0.8533 0.8529 0.8525
2389.000000 0.8521 0.8518 0.8514 0.8510 0.8506
2394.000000 0.8503 0.8503 0.8504 0.8504 0.8504
2399.000000 0.8504 0.8505 0.8505 0.8506 0.8506
2404.000000 0.8507 0.8507 0.8507 0.8509 0.8511
2409.000000 0.8513 0.8516 0.8518 0.8521 0.8523
2414.000000 0.8526 0.8528 0.8531 0.8534 0.8537
2419.000000 0.8540 0.8543 0.8546 0.8549 0.8552
2424.000000 0.8555 0.8558 0.8561 0.8562 0.8564
2429.000000 0.8565 0.8567 0.8568 0.8570 0.8572
2434.000000 0.8574 0.8575 0.8577 0.8578 0.8580
2439.000000 0.8581 0.8583 0.8584 0.8586 0.8587
2444.000000 0.8589 0.8590 0.8591 0.8590 0.8590
2449.000000 0.8588 0.8586 0.8584 0.8582 0.8580
2454.000000 0.8578 0.8575 0.8573 0.8571 0.8569
2459.000000 0.8567 0.8565 0.8563 0.8561 0.8559
2464.000000 0.8557 0.8555 0.8553 0.8551 0.8549
2469.000000 0.8546 0.8543 0.8540 0.8537 0.8534
2474.000000 0.8531 0.8528 0.8525 0.8522 0.8519
2479.000000 0.8515 0.8512 0.8509 0.8506 0.8503
2484.000000 0.8500 0.8497 0.8495 0.8492 0.8489
2489.000000 0.8486 0.8483 0.8480 0.8477 0.8474
2494.000000 0.8472 0.8469 0.8466 0.8463 0.8460
2499.000000 0.8457 0.8455 0.8454 0.8453 0.8452
2504.000000 0.8452 0.8451 0.8451 0.8450 0.8450
2509.000000 0.8449 0.8449 0.8448 0.8448 0.8447
2514.000000 0.8446 0.8445 0.8445 0.8445 0.8445
2519.000000 0.8447 0.8450 0.8452 0.8455 0.8457
2524.000000 0.8460 0.8467 0.8474 0.8482 0.8491
2529.000000 0.8499 0.8508 0.8514 0.8520 0.8526
2534.000000 0.8532 0.8537 0.8543 0.8545 0.8548
2539.000000 0.8548 0.8549 0.8550 0.8551 0.8550
2544.000000 0.8549 0.8548 0.8548 0.8547 0.8546
2549.000000 0.8545 0.8544 0.8542 0.8541 0.8539
2554.000000 0.8538 0.8536 0.8534 0.8532 0.8531
2559.000000 0.8529 0.8527 0.8525 0.8524 0.8522
2564.000000 0.8521 0.8519 0.8518 0.8517 0.8516
2569.000000 0.8515 0.8514 0.8512 0.8511 0.8511
2574.000000 0.8511 0.8511 0.8511 0.8511 0.8512
2579.000000 0.8511 0.8511 0.8511 0.8511 0.8511
2584.000000 0.8511 0.8510 0.8510 0.8510 0.8510
2589.000000 0.8509 0.8509 0.8508 0.8507 0.8502
2594.000000 0.8497 0.8486 0.8475 0.8455 0.8436
2599.000000 0.8407 0.8379 0.8355 0.8331 0.8300
2604.000000 0.8270 0.8236 0.8202 0.8163 0.8124
2609.000000 0.8094 0.8064 0.8036 0.8008 0.7984
2614.000000 0.7960 0.7952 0.7944 0.7940 0.7936
2619.000000 0.7932 0.7929 0.7905 0.7881 0.7704
2624.000000 0.7528 0.7351 0.7175 0.6998 0.6822
2629.000000 0.6645 0.6462 0.6441 0.6413 0.6671
2634.000000 0.6929 0.7294 0.7659 0.7760 0.7861
2639.000000 0.7860 0.7860 0.7859 0.7859 0.7858
2644.000000 0.7858 0.7859 0.7861 0.7874 0.7887
2649.000000 0.7901 0.7916 0.7941 0.7967 0.7993
2654.000000 0.8020 0.8046 0.8073 0.8103 0.8134
2659.000000 0.8165 0.8197 0.8229 0.8261 0.8292
2664.000000 0.8324 0.8345 0.8367 0.8378 0.8389
2669.000000 0.8391 0.8393 0.8395 0.8397 0.8399
2674.000000 0.8402 0.8404 0.8407 0.8407 0.8428
2679.000000 0.8405 0.8404 0.8401 0.8399 0.8396
2684.000000 0.8394 0.8390 0.8387 0.8384 0.8381
2689.000000 0.8377 0.8374 0.8369 0.8364 0.8356
2694.000000 0.8348 0.8335 0.8322 0.8308 0.8295
2699.000000 0.8278 0.8261 0.8243 0.8226 0.8200
2704.000000 0.8175 0.8147 0.8120 0.8092 0.8064
2709.000000 0.8033 0.8003 0.7971 0.7940 0.7920
2714.000000 0.7901 0.7884 0.7868 0.7864 0.7860
2719.000000 0.7857 0.7854 0.7848 0.7843 0.7832
2724.000000 0.7822 0.7806 0.7791 0.7680 0.7569
2729.000000 0.7466 0.7363 0.7376 0.7389 0.7434
2734.000000 0.7479 0.7523 0.7568 0.7610 0.7653
2739.000000 0.7649 0.7645 0.7608 0.7571 0.7514
2744.000000 0.7457 0.7441 0.7442 0.7429 0.7432
2749.000000 0.7448 0.7464 0.7508 0.7553 0.7611
2754.000000 0.7669 0.7695 0.7721 0.7737 0.7754
2759.000000 0.7762 0.7771 0.7775 0.7779 0.7778
2764.000000 0.7778 0.7771 0.7765 0.7754 0.7744
2769.000000 0.7732 0.7721 0.7710 0.7700 0.7685
2774.000000 0.7670 0.7655 0.7641 0.7618 0.7596
2779.000000 0.7565 0.7535 0.7505 0.7475 0.7444
2784.000000 0.7414 0.7384 0.7354 0.7337 0.7321
2789.000000 0.7323 0.7325 0.7378 0.7431 0.7454
2794.000000 0.7477 0.7470 0.7464 0.7457 0.7451
2799.000000 0.7436 0.7422 0.7332 0.7243 0.7146
2804.000000 0.7050 0.6988 0.6926 0.6928 0.6930
2809.000000 0.6963 0.6997 0.7032 0.7068 0.7103
2814.000000 0.7139 0.7158 0.7177 0.7181 0.7186
2819.000000 0.7102 0.7019 0.6864 0.6709 0.6577
2824.000000 0.6445 0.6461 0.6477 0.6529 0.6581
2829.000000 0.6633 0.6686 0.6738 0.6790 0.6789
2834.000000 0.6788 0.6784 0.6780 0.6726 0.6672
2839.000000 0.6448 0.6224 0.6180 0.6136 0.6101
2844.000000 0.6066 0.6044 0.6023 0.6009 0.5995
2849.000000 0.5957 0.5919 0.5877 0.5835 0.5669
2854.000000 0.5504 0.5370 0.5237 0.4999 0.4761
2859.000000 0.4529 0.4298 0.3814 0.3331 0.2847
2864.000000 0.2364 0.1880 0.1397 0.1104 0.0812
2869.000000 0.0752 0.0692 0.0642 0.0592 0.0598
2874.000000 0.0605 0.0622 0.0640 0.0658 0.0676
2879.000000 0.0692 0.0708 0.0485 0.0262 0.0300
2884.000000 0.0339 0.0384 0.0430 0.0419 0.0409
2889.000000 0.0348 0.0287 0.0226 0.0166 0.0162
2894.000000 0.0159 0.0166 0.0173 0.0185 0.0197
2899.000000 0.0219 0.0241 0.0267 0.0294 0.0320
2904.000000 0.0347 0.0373 0.0400 0.0426 0.0453
2909.000000 0.0479 0.0506 0.0521 0.0537 0.0513
2914.000000 0.0489 0.0412 0.0336 0.0284 0.0232
2919.000000 0.0300 0.0369 0.0437 0.0506 0.0555
2924.000000 0.0604 0.0551 0.0498 0.0444 0.0391
2929.000000 0.0337 0.0284 0.0230 0.0177 0.0123
2934.000000 0.0070 0.0035 0.0000 0.0000 0.0000
2939.000000 0.0000 0.0000 0.0000 0.0000 0.0000
2944.000000 0.0000 0.0000 0.0000 0.0000 0.0000
2949.000000 0.0000 0.0000 0.0000 0.0000 0.0000
2954.000000 0.0000 0.0000 0.0000 0.0000 0.0000
2959.000000 0.0000 0.0000 0.0000 0.0000 0.0000
2964.000000 0.0000 0.0000 0.0000 0.0000 0.0000
2969.000000 0.0000 0.0000 0.0000 0.0000 0.0000
2974.000000 0.0000 0.0000 0.0000 0.0000 0.0000
2979.000000 0.0000 0.0000 0.0000 0.0000 0.0026
2984.000000 0.0052 0.0080 0.0108 0.0190 0.0272
2989.000000 0.0330 0.0388 0.0667 0.0946 0.1389
2994.000000 0.1833 0.2276 0.2720 0.3163 0.3606
2999.000000 0.4049 0.4493 0.4936 0.5380 0.5823
3004.000000 0.6266 0.6709 0.7153 0.7360 0.7567
3009.000000 0.7641 0.7716 0.7779 0.7843 0.7896
3014.000000 0.7950 0.7983 0.8017 0.8050 0.8083
3019.000000 0.8111 0.8139 0.8164 0.8189 0.8203
3024.000000 0.8217 0.8231 0.8245 0.8255 0.8265
3029.000000 0.8272 0.8280 0.8288 0.8296 0.8300
3034.000000 0.8304 0.8306 0.8309 0.8311 0.8313
3039.000000 0.8315 0.8317 0.8318 0.8319 0.8319
3044.000000 0.8320 0.8320 0.8321 0.8321 0.8322
3049.000000 0.8321 0.8320 0.8319 0.8319 0.8318
3054.000000 0.8317 0.8316 0.8315 0.8315 0.8365
3059.000000 0.8315 0.8315 0.8315 0.8316 0.8316
3064.000000 0.8316 0.8316 0.8316 0.8315 0.8315
3069.000000 0.8315 0.8315 0.8314 0.8314 0.8314
3074.000000 0.8314 0.8313 0.8313 0.8312 0.8312
3079.000000 0.8311 0.8311 0.8310 0.8310 0.8309
3084.000000 0.8309 0.8308 0.8308 0.8307 0.8307
3089.000000 0.8306 0.8305 0.8304 0.8303 0.8301
3094.000000 0.8300 0.8298 0.8297 0.8294 0.8292
3099.000000 0.8288 0.8284 0.8280 0.8276 0.8272
3104.000000 0.8268 0.8264 0.8260 0.8256 0.8252
3109.000000 0.8246 0.8240 0.8233 0.8227 0.8220
3114.000000 0.8213 0.8206 0.8200 0.8193 0.8187
3119.000000 0.8178 0.8169 0.8160 0.8151 0.8142
3124.000000 0.8134 0.8125 0.8116 0.8106 0.8097
3129.000000 0.8087 0.8078 0.8068 0.8059 0.8049
3134.000000 0.8040 0.8030 0.8021 0.8006 0.7992
3139.000000 0.7978 0.7964 0.7950 0.7936 0.7922
3144.000000 0.7908 0.7893 0.7878 0.7860 0.7843
3149.000000 0.7826 0.7809 0.7792 0.7775 0.7756
3154.000000 0.7737 0.7718 0.7700 0.7690 0.7681
3159.000000 0.7672 0.7663 0.7660 0.7658 0.7655
3164.000000 0.7652 0.7649 0.7647 0.7617 0.7588
3169.000000 0.7573 0.7559 0.7558 0.7557 0.7557
3174.000000 0.7557 0.7561 0.7584 0.7585 0.7605
3179.000000 0.7637 0.7669 0.7701 0.7733 0.7739
3184.000000 0.7746 0.7741 0.7736 0.7733 0.7730
3189.000000 0.7727 0.7725 0.7720 0.7715 0.7707
3194.000000 0.7700 0.7696 0.7693 0.7689 0.7685
3199.000000 0.7683 0.7681 0.7681 0.7681 0.7683
3204.000000 0.7685 0.7690 0.7696 0.7701 0.7707
3209.000000 0.7712 0.7718 0.7723 0.7728 0.7733
3214.000000 0.7739 0.7744 0.7749 0.7755 0.7762
3219.000000 0.7773 0.7784 0.7797 0.7811 0.7828
3224.000000 0.7845 0.7870 0.7896 0.8059 0.8222
3229.000000 0.8255 0.8288 0.8308 0.8328 0.8348
3234.000000 0.8368 0.8387 0.8406 0.8421 0.8437
3239.000000 0.8452 0.8467 0.8480 0.8493 0.8506
3244.000000 0.8519 0.8528 0.8537 0.8546 0.8555
3249.000000 0.8563 0.8571 0.8575 0.8579 0.8583
3254.000000 0.8588 0.8592 0.8597 0.8601 0.8606
3259.000000 0.8608 0.8610 0.8611 0.8613 0.8614
3264.000000 0.8616 0.8617 0.8619 0.8620 0.8622
3269.000000 0.8622 0.8623 0.8622 0.8621 0.8620
3274.000000 0.8655 0.8618 0.8618 0.8617 0.8616
3279.000000 0.8615 0.8614 0.8611 0.8608 0.8603
3284.000000 0.8599 0.8594 0.8589 0.8584 0.8580
3289.000000 0.8573 0.8567 0.8560 0.8553 0.8545
3294.000000 0.8538 0.8531 0.8524 0.8516 0.8509
3299.000000 0.8502 0.8495 0.8487 0.8480 0.8470
3304.000000 0.8460 0.8450 0.8440 0.8430 0.8420
3309.000000 0.8411 0.8402 0.8393 0.8385 0.8376
3314.000000 0.8368 0.8359 0.8350 0.8339 0.8329
3319.000000 0.8316 0.8303 0.8290 0.8278 0.8265
3324.000000 0.8252 0.8237 0.8223 0.8222 0.8221
3329.000000 0.8223 0.8226 0.8246 0.8232 0.8292
3334.000000 0.8318 0.8332 0.8347 0.8362 0.8378
3339.000000 0.8390 0.8402 0.8411 0.8420 0.8427
3344.000000 0.8434 0.8440 0.8446 0.8452 0.8459
3349.000000 0.8466 0.8474 0.8482 0.8490 0.8499
3354.000000 0.8508 0.8519 0.8530 0.8539 0.8548
3359.000000 0.8554 0.8561 0.8567 0.8573 0.8576
3364.000000 0.8580 0.8580 0.8580 0.8577 0.8575
3369.000000 0.8572 0.8569 0.8564 0.8560 0.8556
3374.000000 0.8552 0.8548 0.8544 0.8544 0.8544
3379.000000 0.8543 0.8543 0.8542 0.8542 0.8542
3384.000000 0.8543 0.8543 0.8544 0.8545 0.8546
3389.000000 0.8548 0.8551 0.8554 0.8557 0.8560
3394.000000 0.8563 0.8566 0.8569 0.8575 0.8582
3399.000000 0.8588 0.8595 0.8602 0.8609 0.8619
3404.000000 0.8629 0.8638 0.8648 0.8658 0.8669
3409.000000 0.8679 0.8690 0.8699 0.8709 0.8716
3414.000000 0.8723 0.8730 0.8737 0.8741 0.8745
3419.000000 0.8747 0.8750 0.8752 0.8755 0.8757
3424.000000 0.8760 0.8762 0.8764 0.8766 0.8768
3429.000000 0.8769 0.8771 0.8772 0.8774 0.8774
3434.000000 0.8775 0.8775 0.8776 0.8776 0.8777
3439.000000 0.8777 0.8778 0.8778 0.8778 0.8778
3444.000000 0.8779 0.8779 0.8779 0.8779 0.8779
3449.000000 0.8779 0.8779 0.8779 0.8779 0.8779
3454.000000 0.8779 0.8779 0.8779 0.8779 0.8779
3459.000000 0.8779 0.8779 0.8779 0.8779 0.8778
3464.000000 0.8778 0.8778 0.8778 0.8778 0.8778
3469.000000 0.8778 0.8778 0.8777 0.8777 0.8777
3474.000000 0.8778 0.8778 0.8778 0.8778 0.8779
3479.000000 0.8779 0.8779 0.8779 0.8780 0.8780
3484.000000 0.8781 0.8781 0.8781 0.8781 0.8782
3489.000000 0.8782 0.8782 0.8782 0.8783 0.8783
3494.000000 0.8783 0.8783 0.8783 0.8783 0.8783
3499.000000 0.8783 0.8784 0.8784 0.8784 0.8784
3504.000000 0.8784 0.8784 0.8784 0.8784 0.8784
3509.000000 0.8784 0.8785 0.8785 0.8785 0.8785
3514.000000 0.8785 0.8785 0.8785 0.8785 0.8785
3519.000000 0.8785 0.8785 0.8785 0.8786 0.8786
3524.000000 0.8786 0.8786 0.8786 0.8786 0.8786
3529.000000 0.8786 0.8786 0.8786 0.8787 0.8787
3534.000000 0.8788 0.8788 0.8789 0.8789 0.8790
3539.000000 0.8790 0.8791 0.8792 0.8794 0.8796
3544.000000 0.8798 0.8799 0.8801 0.8803 0.8805
3549.000000 0.8807 0.8809 0.8811 0.8814 0.8817
3554.000000 0.8820 0.8821 0.8822 0.8821 0.8820
3559.000000 0.8818 0.8817 0.8815 0.8814 0.8813
3564.000000 0.8812 0.8810 0.8809 0.8809 0.8810
3569.000000 0.8811 0.8812 0.8812 0.8813 0.8817
3574.000000 0.8821 0.8825 0.8829 0.8835 0.8841
3579.000000 0.8844 0.8848 0.8847 0.8847 0.8846
3584.000000 0.8845 0.8844 0.8843 0.8842 0.8841
3589.000000 0.8839 0.8838 0.8837 0.8836 0.8835
3594.000000 0.8835 0.8835 0.8835 0.8835 0.8835
3599.000000 0.8835 0.8846 0.8837 0.8838 0.8839
3604.000000 0.8840 0.8841 0.8842 0.8842 0.8843
3609.000000 0.8843 0.8844 0.8844 0.8844 0.8844
3614.000000 0.8844 0.8844 0.8844 0.8844 0.8844
3619.000000 0.8844 0.8844 0.8843 0.8843 0.8843
3624.000000 0.8843 0.8842 0.8842 0.8842 0.8842
3629.000000 0.8841 0.8841 0.8840 0.8840 0.8840
3634.000000 0.8840 0.8839 0.8839 0.8839 0.8839
3639.000000 0.8838 0.8838 0.8837 0.8837 0.8836
3644.000000 0.8836 0.8835 0.8835 0.8835 0.8835
3649.000000 0.8834 0.8834 0.8833 0.8833 0.8832
3654.000000 0.8832 0.8830 0.8828 0.8826 0.8825
3659.000000 0.8823 0.8821 0.8819 0.8817 0.8815
3664.000000 0.8814 0.8810 0.8806 0.8802 0.8798
3669.000000 0.8793 0.8789 0.8785 0.8781 0.8777
3674.000000 0.8773 0.8769 0.8766 0.8762 0.8758
3679.000000 0.8754 0.8750 0.8746 0.8743 0.8742
3684.000000 0.8742 0.8743 0.8745 0.8750 0.8756
3689.000000 0.8763 0.8771 0.8779 0.8787 0.8794
3694.000000 0.8801 0.8808 0.8816 0.8824 0.8833
3699.000000 0.8835 0.8837 0.8839 0.8842 0.8843
3704.000000 0.8845 0.8846 0.8847 0.8848 0.8849
3709.000000 0.8849 0.8849 0.8849 0.8849 0.8849
3714.000000 0.8849 0.8849 0.8849 0.8849 0.8850
3719.000000 0.8849 0.8849 0.8849 0.8849 0.8848
3724.000000 0.8848 0.8848 0.8848 0.8847 0.8847
3729.000000 0.8847 0.8847 0.8844 0.8841 0.8838
3734.000000 0.8835 0.8825 0.8815 0.8804 0.8794
3739.000000 0.8783 0.8773 0.8764 0.8756 0.8750
3744.000000 0.8744 0.8741 0.8738 0.8736 0.8735
3749.000000 0.8734 0.8733 0.8733 0.8734 0.8734
3754.000000 0.8735 0.8736 0.8737 0.8736 0.8736
3759.000000 0.8735 0.8735 0.8732 0.8730 0.8726
3764.000000 0.8722 0.8715 0.8709 0.8702 0.8696
3769.000000 0.8689 0.8682 0.8676 0.8670 0.8664
3774.000000 0.8658 0.8652 0.8646 0.8640 0.8635
3779.000000 0.8630 0.8625 0.8620 0.8616 0.8612
3784.000000 0.8609 0.8605 0.8602 0.8597 0.8593
3789.000000 0.8588 0.8583 0.8578 0.8574 0.8569
3794.000000 0.8565 0.8560 0.8556 0.8551 0.8546
3799.000000 0.8543 0.8540
##END=
