##TITLE=Ethylene, 1,1-difluoro-
##JCAMP-DX=4.24
##DATA TYPE=INFRARED SPECTRUM
##CLASS=COBLENTZ
##ORIGIN=DOW CHEMICAL COMPANY
##OWNER=Copyright (C) 1987 by the Coblentz Society
Collection (C) 2018 copyright by the U.S. Secretary of Commerce
on behalf of the United States of America. All rights reserved.
##DATE=1964
##NAMES=1,1-difluoroethylene
1,1-DIFLUORO ETHYLENE
##CAS REGISTRY NO=75-38-7
##MOLFORM=C2 H2 F2
##SOURCE REFERENCE=COBLENTZ NO. 8859
##$NIST SOURCE=COBLENTZ
##$NIST IMAGE=cob8859
##SPECTROMETER/DATA SYSTEM=DOW KBr FOREPRISM-GRATING
##INSTRUMENT PARAMETERS=GRATING CHANGED AT 5.0, 7.5, 15.0 MICRON
##STATE=GAS (50 mmHg, N2 ADDED, TOTAL PRESSURE 600 mmHg)
##PATH LENGTH=5 CM
##SAMPLING PROCEDURE=TRANSMISSION
##RESOLUTION=2
##DATA PROCESSING=DIGITIZED BY COBLENTZ SOCIETY (BATCH II) FROM HARD COPY
##XUNITS=1/CM
##YUNITS=TRANSMITTANCE
##XFACTOR=1.0
##YFACTOR=1
##FIRSTX=455
##LASTX=3780
##FIRSTY=0.7961
##MAXX=3780
##MINX=455
##MAXY=0.873
##MINY=0.0014
##NPOINTS=3326
##XYDATA=(X++(Y..Y))
455.000000 0.7961 0.7967 0.7972 0.7978 0.7985
460.000000 0.7993 0.8001 0.8010 0.8018 0.8026
465.000000 0.8035 0.8044 0.8056 0.8067 0.8078
470.000000 0.8090 0.8101 0.8112 0.8124 0.8135
475.000000 0.8146 0.8158 0.8169 0.8180 0.8192
480.000000 0.8201 0.8211 0.8220 0.8230 0.8239
485.000000 0.8249 0.8258 0.8268 0.8277 0.8287
490.000000 0.8296 0.8300 0.8305 0.8309 0.8314
495.000000 0.8318 0.8323 0.8327 0.8332 0.8333
500.000000 0.8331 0.8329 0.8327 0.8325 0.8323
505.000000 0.8342 0.8314 0.8309 0.8305 0.8300
510.000000 0.8295 0.8291 0.8286 0.8281 0.8277
515.000000 0.8272 0.8267 0.8263 0.8258 0.8253
520.000000 0.8248 0.8244 0.8231 0.8217 0.8204
525.000000 0.8190 0.8171 0.8145 0.8119 0.8093
530.000000 0.8050 0.8001 0.7951 0.7897 0.7843
535.000000 0.7790 0.7732 0.7653 0.7573 0.7490
540.000000 0.7395 0.7320 0.7263 0.7190 0.7197
545.000000 0.7203 0.7211 0.7225 0.7243 0.7269
550.000000 0.7298 0.7328 0.7360 0.6774 0.6440
555.000000 0.6755 0.7530 0.7497 0.7414 0.7331
560.000000 0.7249 0.7166 0.7084 0.6989 0.6971
565.000000 0.6968 0.6975 0.6990 0.7019 0.7094
570.000000 0.7197 0.7300 0.7404 0.7507 0.7610
575.000000 0.7713 0.7816 0.7888 0.7949 0.8011
580.000000 0.8065 0.8111 0.8148 0.8178 0.8204
585.000000 0.8221 0.8238 0.8248 0.8258 0.8268
590.000000 0.8271 0.8274 0.8278 0.8280 0.8281
595.000000 0.8281 0.8282 0.8282 0.8283 0.8284
600.000000 0.8284 0.8284 0.8284 0.8284 0.8285
605.000000 0.8286 0.8287 0.8288 0.8275 0.8257
610.000000 0.8229 0.8159 0.8120 0.8138 0.8183
615.000000 0.8227 0.8270 0.8270 0.8270 0.8270
620.000000 0.8267 0.8264 0.8261 0.8257 0.8254
625.000000 0.8251 0.8248 0.8241 0.8234 0.8226
630.000000 0.8223 0.8221 0.8219 0.8218 0.8220
635.000000 0.8228 0.8242 0.8256 0.8270 0.8282
640.000000 0.8295 0.8308 0.8318 0.8325 0.8333
645.000000 0.8340 0.8346 0.8349 0.8351 0.8354
650.000000 0.8357 0.8359 0.8361 0.8361 0.8361
655.000000 0.8360 0.8360 0.8359 0.8350 0.8359
660.000000 0.8358 0.8356 0.8353 0.8351 0.8348
665.000000 0.8346 0.8343 0.8341 0.8353 0.8430
670.000000 0.8485 0.8477 0.8467 0.8452 0.8434
675.000000 0.8375 0.8329 0.8312 0.8304 0.8295
680.000000 0.8288 0.8282 0.8275 0.8268 0.8261
685.000000 0.8255 0.8251 0.8247 0.8243 0.8239
690.000000 0.8235 0.8229 0.8224 0.8219 0.8213
695.000000 0.8208 0.8202 0.8198 0.8194 0.8190
700.000000 0.8186 0.8181 0.8177 0.8173 0.8169
705.000000 0.8165 0.8160 0.8155 0.8149 0.8144
710.000000 0.8138 0.8133 0.8128 0.8122 0.8117
715.000000 0.8111 0.8106 0.8102 0.8098 0.8094
720.000000 0.8090 0.8086 0.8082 0.8078 0.8074
725.000000 0.8070 0.8066 0.8062 0.8058 0.8054
730.000000 0.8050 0.8048 0.8045 0.8043 0.8041
735.000000 0.8038 0.8036 0.8033 0.8031 0.8028
740.000000 0.8026 0.8023 0.8020 0.8018 0.8015
745.000000 0.8012 0.8009 0.7999 0.7844 0.7690
750.000000 0.7643 0.7706 0.7768 0.7825 0.7813
755.000000 0.7801 0.7784 0.7767 0.7738 0.7674
760.000000 0.7599 0.7508 0.7309 0.7111 0.6912
765.000000 0.6714 0.6515 0.6316 0.6118 0.5919
770.000000 0.5720 0.5522 0.5323 0.5124 0.4926
775.000000 0.4715 0.4526 0.4347 0.4004 0.3816
780.000000 0.3642 0.3533 0.3441 0.3368 0.3351
785.000000 0.3365 0.3383 0.3422 0.3497 0.3582
790.000000 0.3846 0.4153 0.4459 0.4690 0.4742
795.000000 0.4632 0.4282 0.3933 0.3625 0.3631
800.000000 0.4434 0.6255 0.6235 0.1501 0.0154
805.000000 0.0290 0.1585 0.2879 0.4173 0.5468
810.000000 0.5885 0.5901 0.5511 0.5130 0.4749
815.000000 0.4369 0.3988 0.3607 0.3369 0.3252
820.000000 0.3058 0.2802 0.2545 0.2289 0.2112
825.000000 0.2400 0.2900 0.3104 0.3183 0.3285
830.000000 0.3401 0.3739 0.4016 0.4337 0.4631
835.000000 0.4967 0.5647 0.5864 0.6141 0.6380
840.000000 0.6537 0.6679 0.6808 0.6936 0.7015
845.000000 0.7086 0.7156 0.7227 0.7323 0.7429
850.000000 0.7557 0.7727 0.7770 0.7813 0.7857
855.000000 0.7875 0.7894 0.7912 0.7923 0.7930
860.000000 0.7936 0.7943 0.7949 0.7952 0.7954
865.000000 0.7956 0.7957 0.7958 0.7950 0.7945
870.000000 0.7941 0.7936 0.7930 0.7925 0.7919
875.000000 0.7914 0.7907 0.7895 0.7883 0.7870
880.000000 0.7852 0.7832 0.7812 0.7778 0.7742
885.000000 0.7707 0.7654 0.7594 0.7512 0.7422
890.000000 0.7313 0.7176 0.6919 0.6727 0.6540
895.000000 0.6355 0.6100 0.5685 0.5270 0.4855
900.000000 0.4440 0.4025 0.3610 0.3227 0.3044
905.000000 0.2720 0.2454 0.2274 0.2062 0.1653
910.000000 0.1467 0.1343 0.1197 0.1137 0.1125
915.000000 0.1132 0.1174 0.1218 0.1261 0.1305
920.000000 0.1349 0.1403 0.1382 0.1170 0.0861
925.000000 0.0379 0.0370 0.1474 0.2056 0.2014
930.000000 0.2074 0.1561 0.1334 0.1107 0.0881
935.000000 0.0719 0.0567 0.0508 0.0475 0.0461
940.000000 0.0464 0.0484 0.0494 0.0563 0.0965
945.000000 0.1167 0.1461 0.1714 0.1966 0.2446
950.000000 0.2861 0.3460 0.4060 0.4860 0.4822
955.000000 0.4697 0.4321 0.3945 0.3847 0.3825
960.000000 0.3946 0.4022 0.4098 0.4174 0.4250
965.000000 0.4326 0.4402 0.4478 0.4554 0.4630
970.000000 0.4706 0.4742 0.4853 0.5017 0.5267
975.000000 0.5545 0.5747 0.5905 0.6217 0.6361
980.000000 0.6504 0.6610 0.6711 0.6827 0.6959
985.000000 0.7115 0.7317 0.7427 0.7517 0.7580
990.000000 0.7644 0.7691 0.7732 0.7773 0.7809
995.000000 0.7837 0.7865 0.7892 0.7915 0.7934
1000.000000 0.7952 0.7970 0.7988 0.8005 0.8014
1005.000000 0.8022 0.8031 0.8040 0.8049 0.8057
1010.000000 0.8066 0.8072 0.8077 0.8082 0.8087
1015.000000 0.8092 0.8097 0.8102 0.8107 0.8111
1020.000000 0.8114 0.8117 0.8120 0.8123 0.8124
1025.000000 0.8123 0.8123 0.8122 0.8122 0.8122
1030.000000 0.8121 0.8120 0.8120 0.8119 0.8118
1035.000000 0.8117 0.8117 0.8116 0.8115 0.8114
1040.000000 0.8113 0.8112 0.8111 0.8110 0.8109
1045.000000 0.8108 0.8107 0.8106 0.8105 0.8104
1050.000000 0.8103 0.8100 0.8098 0.8095 0.8093
1055.000000 0.8090 0.8088 0.8085 0.8082 0.8080
1060.000000 0.8077 0.8075 0.8072 0.8069 0.8067
1065.000000 0.8064 0.8062 0.8059 0.8057 0.8056
1070.000000 0.8055 0.8053 0.8052 0.8051 0.8078
1075.000000 0.8048 0.8047 0.8045 0.8044 0.8044
1080.000000 0.8045 0.8046 0.8048 0.8051 0.8054
1085.000000 0.8058 0.8064 0.8071 0.8078 0.8083
1090.000000 0.8084 0.8085 0.8085 0.8086 0.8087
1095.000000 0.8087 0.8087 0.8087 0.8086 0.8086
1100.000000 0.8086 0.8086 0.8085 0.8085 0.8085
1105.000000 0.8085 0.8084 0.8084 0.8083 0.8082
1110.000000 0.8081 0.8080 0.8080 0.8079 0.8078
1115.000000 0.8077 0.8076 0.8075 0.8075 0.8074
1120.000000 0.8073 0.8072 0.8071 0.8070 0.8069
1125.000000 0.8068 0.8067 0.8066 0.8065 0.8064
1130.000000 0.8063 0.8062 0.8060 0.8058 0.8057
1135.000000 0.8055 0.8054 0.8052 0.8051 0.8049
1140.000000 0.8049 0.8050 0.8051 0.8052 0.8053
1145.000000 0.8054 0.8055 0.8056 0.8060 0.8065
1150.000000 0.8070 0.8075 0.8076 0.8076 0.8076
1155.000000 0.8077 0.8077 0.8077 0.8077 0.8075
1160.000000 0.8074 0.8073 0.8071 0.8070 0.8069
1165.000000 0.8067 0.8066 0.8063 0.8059 0.8055
1170.000000 0.8051 0.8048 0.8044 0.8040 0.8036
1175.000000 0.8030 0.8024 0.8018 0.8012 0.8006
1180.000000 0.7998 0.7990 0.7995 0.8011 0.8024
1185.000000 0.8032 0.8031 0.8028 0.8026 0.8017
1190.000000 0.8001 0.7984 0.7963 0.7941 0.7914
1195.000000 0.7881 0.7848 0.7810 0.7772 0.7734
1200.000000 0.7696 0.7659 0.7622 0.7584 0.7539
1205.000000 0.7490 0.7452 0.7441 0.7437 0.7449
1210.000000 0.7468 0.7496 0.7520 0.7545 0.7567
1215.000000 0.7588 0.7604 0.7616 0.7662 0.7256
1220.000000 0.7157 0.7203 0.7450 0.7698 0.7724
1225.000000 0.7706 0.7647 0.7597 0.7559 0.7523
1230.000000 0.7497 0.7474 0.7459 0.7453 0.7451
1235.000000 0.7470 0.7484 0.7499 0.7518 0.7534
1240.000000 0.7550 0.7564 0.7568 0.7571 0.7569
1245.000000 0.7567 0.7575 0.7547 0.7516 0.7466
1250.000000 0.7400 0.7341 0.7274 0.7202 0.7114
1255.000000 0.7015 0.6917 0.6818 0.6712 0.6607
1260.000000 0.6511 0.6415 0.6262 0.6032 0.5801
1265.000000 0.5571 0.5340 0.5110 0.4880 0.4649
1270.000000 0.4419 0.4187 0.3486 0.3053 0.2520
1275.000000 0.1753 0.1436 0.1209 0.1060 0.0943
1280.000000 0.0746 0.0529 0.0390 0.0337 0.0284
1285.000000 0.0237 0.0201 0.0182 0.0165 0.0154
1290.000000 0.0143 0.0136 0.0134 0.0129 0.0126
1295.000000 0.0128 0.0130 0.0131 0.0133 0.0135
1300.000000 0.0161 0.0196 0.0224 0.0242 0.0254
1305.000000 0.0208 0.0138 0.0110 0.0104 0.0101
1310.000000 0.0097 0.0098 0.0099 0.0074 0.0103
1315.000000 0.0105 0.0108 0.0117 0.0129 0.0142
1320.000000 0.0164 0.0198 0.0265 0.0328 0.0390
1325.000000 0.0461 0.0556 0.0674 0.0920 0.1203
1330.000000 0.1410 0.1617 0.1824 0.2031 0.2238
1335.000000 0.2445 0.2652 0.2859 0.3066 0.3273
1340.000000 0.3480 0.3687 0.3894 0.4101 0.4320
1345.000000 0.4681 0.4929 0.5153 0.5360 0.5608
1350.000000 0.5788 0.6046 0.6470 0.6608 0.6739
1355.000000 0.6862 0.6930 0.6986 0.7042 0.7092
1360.000000 0.7140 0.7188 0.7269 0.7360 0.7451
1365.000000 0.7541 0.7632 0.7676 0.7649 0.7529
1370.000000 0.7409 0.7318 0.7302 0.7288 0.7275
1375.000000 0.7263 0.7258 0.7260 0.7261 0.7263
1380.000000 0.7277 0.7309 0.7361 0.7422 0.7486
1385.000000 0.7552 0.7618 0.7686 0.7755 0.7848
1390.000000 0.7948 0.8006 0.8058 0.8076 0.8087
1395.000000 0.8087 0.8087 0.8085 0.8081 0.8078
1400.000000 0.8075 0.8073 0.8073 0.8074 0.8075
1405.000000 0.8076 0.8081 0.8086 0.8091 0.8093
1410.000000 0.8070 0.8045 0.8027 0.8013 0.8013
1415.000000 0.8015 0.8033 0.8058 0.8089 0.8122
1420.000000 0.8146 0.8155 0.8161 0.8163 0.8163
1425.000000 0.8163 0.8167 0.8172 0.8177 0.8191
1430.000000 0.8208 0.8224 0.8242 0.8261 0.8280
1435.000000 0.8306 0.8336 0.8354 0.8368 0.8382
1440.000000 0.8391 0.8396 0.8402 0.8407 0.8413
1445.000000 0.8419 0.8426 0.8432 0.8438 0.8444
1450.000000 0.8450 0.8457 0.8459 0.8460 0.8461
1455.000000 0.8463 0.8464 0.8466 0.8465 0.8465
1460.000000 0.8465 0.8464 0.8464 0.8463 0.8463
1465.000000 0.8463 0.8462 0.8459 0.8457 0.8454
1470.000000 0.8452 0.8449 0.8446 0.8444 0.8438
1475.000000 0.8431 0.8425 0.8418 0.8412 0.8406
1480.000000 0.8400 0.8395 0.8389 0.8384 0.8378
1485.000000 0.8372 0.8373 0.8376 0.8378 0.8380
1490.000000 0.8385 0.8390 0.8395 0.8400 0.8405
1495.000000 0.8409 0.8422 0.8423 0.8430 0.8437
1500.000000 0.8444 0.8451 0.8458 0.8465 0.8472
1505.000000 0.8480 0.8487 0.8494 0.8496 0.8497
1510.000000 0.8497 0.8493 0.8483 0.8473 0.8462
1515.000000 0.8454 0.8453 0.8451 0.8450 0.8448
1520.000000 0.8449 0.8453 0.8457 0.8461 0.8465
1525.000000 0.8469 0.8472 0.8474 0.8476 0.8478
1530.000000 0.8480 0.8482 0.8484 0.8487 0.8491
1535.000000 0.8496 0.8500 0.8505 0.8510 0.8514
1540.000000 0.8514 0.8511 0.8505 0.8493 0.8482
1545.000000 0.8474 0.8466 0.8459 0.8455 0.8453
1550.000000 0.8451 0.8448 0.8446 0.8446 0.8446
1555.000000 0.8446 0.8446 0.8445 0.8444 0.8444
1560.000000 0.8443 0.8431 0.8417 0.8397 0.8375
1565.000000 0.8369 0.8364 0.8362 0.8362 0.8363
1570.000000 0.8363 0.8360 0.8343 0.8326 0.8290
1575.000000 0.8252 0.8216 0.8179 0.8143 0.8108
1580.000000 0.8037 0.7959 0.7866 0.7771 0.7671
1585.000000 0.7571 0.7434 0.7167 0.6918 0.6671
1590.000000 0.6423 0.6175 0.5927 0.5680 0.5432
1595.000000 0.5197 0.5048 0.4940 0.4836 0.4750
1600.000000 0.4681 0.4645 0.4648 0.4668 0.4760
1605.000000 0.4852 0.4945 0.5037 0.5129 0.5184
1610.000000 0.5170 0.4958 0.3347 0.3332 0.3977
1615.000000 0.4473 0.4969 0.4993 0.4996 0.4983
1620.000000 0.4882 0.4741 0.4600 0.4459 0.4431
1625.000000 0.4430 0.4466 0.4520 0.4592 0.4651
1630.000000 0.4726 0.4878 0.5076 0.6761 0.6914
1635.000000 0.7057 0.7145 0.7233 0.7328 0.7432
1640.000000 0.7535 0.7617 0.7693 0.7768 0.7843
1645.000000 0.7922 0.8002 0.8082 0.8154 0.8213
1650.000000 0.8272 0.8335 0.8388 0.8400 0.8399
1655.000000 0.8393 0.8379 0.8364 0.8347 0.8346
1660.000000 0.8335 0.8330 0.8325 0.8319 0.8305
1665.000000 0.8292 0.8278 0.8259 0.8240 0.8211
1670.000000 0.8166 0.8119 0.8066 0.8014 0.7949
1675.000000 0.7871 0.7789 0.7705 0.7621 0.7522
1680.000000 0.7410 0.7294 0.7162 0.7037 0.6922
1685.000000 0.6822 0.6748 0.6674 0.6600 0.6457
1690.000000 0.6173 0.5890 0.5606 0.5323 0.5039
1695.000000 0.4756 0.4472 0.4189 0.3905 0.3622
1700.000000 0.3338 0.2282 0.2069 0.1703 0.1389
1705.000000 0.1024 0.0775 0.0605 0.0513 0.0422
1710.000000 0.0341 0.0290 0.0238 0.0187 0.0160
1715.000000 0.0137 0.0115 0.0099 0.0086 0.0072
1720.000000 0.0059 0.0050 0.0043 0.0036 0.0030
1725.000000 0.0026 0.0024 0.0022 0.0019 0.0017
1730.000000 0.0020 0.0023 0.0014 0.0029 0.0032
1735.000000 0.0036 0.0040 0.0044 0.0049 0.0054
1740.000000 0.0058 0.0063 0.0069 0.0074 0.0082
1745.000000 0.0091 0.0102 0.0112 0.0125 0.0137
1750.000000 0.0150 0.0166 0.0182 0.0203 0.0224
1755.000000 0.0256 0.0318 0.0395 0.0471 0.0550
1760.000000 0.0631 0.0921 0.1151 0.1699 0.2508
1765.000000 0.3316 0.4125 0.4933 0.6376 0.6597
1770.000000 0.6785 0.6886 0.6987 0.7089 0.7238
1775.000000 0.7387 0.7528 0.7653 0.7775 0.7886
1780.000000 0.7982 0.8046 0.8111 0.8158 0.8193
1785.000000 0.8229 0.8264 0.8280 0.8296 0.8313
1790.000000 0.8329 0.8343 0.8351 0.8360 0.8368
1795.000000 0.8376 0.8384 0.8392 0.8393 0.8395
1800.000000 0.8397 0.8398 0.8427 0.8402 0.8403
1805.000000 0.8403 0.8403 0.8402 0.8402 0.8402
1810.000000 0.8401 0.8401 0.8399 0.8392 0.8386
1815.000000 0.8379 0.8373 0.8366 0.8360 0.8353
1820.000000 0.8345 0.8336 0.8327 0.8318 0.8309
1825.000000 0.8299 0.8290 0.8281 0.8272 0.8263
1830.000000 0.8248 0.8234 0.8220 0.8205 0.8191
1835.000000 0.8185 0.8180 0.8174 0.8169 0.8164
1840.000000 0.8159 0.8154 0.8150 0.8138 0.8122
1845.000000 0.8089 0.8056 0.8041 0.8061 0.8081
1850.000000 0.8073 0.8025 0.7977 0.7931 0.7885
1855.000000 0.7839 0.7799 0.7766 0.7733 0.7709
1860.000000 0.7703 0.7697 0.7699 0.7714 0.7744
1865.000000 0.7776 0.7816 0.7858 0.7908 0.7957
1870.000000 0.8004 0.8051 0.8093 0.8097 0.8101
1875.000000 0.8101 0.8109 0.8101 0.8101 0.8077
1880.000000 0.8032 0.7988 0.7944 0.7900 0.7855
1885.000000 0.7807 0.7762 0.7717 0.7671 0.7625
1890.000000 0.7577 0.7523 0.7466 0.7405 0.7363
1895.000000 0.7396 0.7404 0.7415 0.7436 0.7475
1900.000000 0.7525 0.7573 0.7619 0.7647 0.7669
1905.000000 0.7676 0.7695 0.7458 0.7348 0.7310
1910.000000 0.7394 0.7545 0.7523 0.7502 0.7475
1915.000000 0.7458 0.7445 0.7443 0.7442 0.7463
1920.000000 0.7496 0.7532 0.7585 0.7646 0.7707
1925.000000 0.7772 0.7836 0.7901 0.7958 0.8014
1930.000000 0.8068 0.8122 0.8175 0.8227 0.8279
1935.000000 0.8306 0.8332 0.8359 0.8381 0.8401
1940.000000 0.8413 0.8422 0.8432 0.8440 0.8448
1945.000000 0.8456 0.8460 0.8465 0.8469 0.8473
1950.000000 0.8477 0.8481 0.8481 0.8482 0.8483
1955.000000 0.8484 0.8485 0.8486 0.8486 0.8487
1960.000000 0.8488 0.8489 0.8488 0.8488 0.8488
1965.000000 0.8487 0.8487 0.8487 0.8486 0.8486
1970.000000 0.8486 0.8485 0.8485 0.8484 0.8484
1975.000000 0.8483 0.8483 0.8483 0.8482 0.8482
1980.000000 0.8481 0.8481 0.8480 0.8480 0.8479
1985.000000 0.8479 0.8478 0.8478 0.8477 0.8477
1990.000000 0.8476 0.8476 0.8476 0.8475 0.8475
1995.000000 0.8474 0.8474 0.8473 0.8473 0.8473
2000.000000 0.8473 0.8473 0.8474 0.8474 0.8474
2005.000000 0.8474 0.8474 0.8474 0.8475 0.8475
2010.000000 0.8475 0.8475 0.8475 0.8475 0.8475
2015.000000 0.8475 0.8476 0.8476 0.8476 0.8476
2020.000000 0.8476 0.8476 0.8477 0.8477 0.8477
2025.000000 0.8477 0.8508 0.8477 0.8478 0.8478
2030.000000 0.8478 0.8478 0.8478 0.8478 0.8479
2035.000000 0.8479 0.8479 0.8479 0.8480 0.8480
2040.000000 0.8480 0.8480 0.8480 0.8480 0.8481
2045.000000 0.8481 0.8481 0.8481 0.8481 0.8481
2050.000000 0.8482 0.8482 0.8482 0.8482 0.8482
2055.000000 0.8482 0.8483 0.8483 0.8483 0.8482
2060.000000 0.8482 0.8482 0.8482 0.8482 0.8482
2065.000000 0.8481 0.8481 0.8481 0.8481 0.8481
2070.000000 0.8481 0.8480 0.8480 0.8480 0.8480
2075.000000 0.8480 0.8480 0.8479 0.8479 0.8478
2080.000000 0.8478 0.8478 0.8478 0.8477 0.8477
2085.000000 0.8476 0.8476 0.8476 0.8476 0.8475
2090.000000 0.8475 0.8474 0.8474 0.8474 0.8474
2095.000000 0.8473 0.8473 0.8473 0.8473 0.8472
2100.000000 0.8472 0.8471 0.8471 0.8471 0.8471
2105.000000 0.8470 0.8470 0.8469 0.8469 0.8468
2110.000000 0.8468 0.8467 0.8467 0.8466 0.8465
2115.000000 0.8464 0.8464 0.8463 0.8462 0.8461
2120.000000 0.8461 0.8460 0.8459 0.8458 0.8458
2125.000000 0.8457 0.8456 0.8455 0.8455 0.8454
2130.000000 0.8454 0.8453 0.8452 0.8451 0.8451
2135.000000 0.8450 0.8449 0.8448 0.8448 0.8447
2140.000000 0.8446 0.8445 0.8445 0.8444 0.8443
2145.000000 0.8442 0.8442 0.8441 0.8441 0.8440
2150.000000 0.8439 0.8437 0.8436 0.8435 0.8434
2155.000000 0.8433 0.8432 0.8430 0.8429 0.8428
2160.000000 0.8427 0.8425 0.8424 0.8423 0.8422
2165.000000 0.8421 0.8420 0.8418 0.8417 0.8416
2170.000000 0.8415 0.8413 0.8412 0.8410 0.8408
2175.000000 0.8406 0.8404 0.8402 0.8401 0.8399
2180.000000 0.8397 0.8392 0.8387 0.8379 0.8372
2185.000000 0.8364 0.8357 0.8349 0.8341 0.8333
2190.000000 0.8326 0.8318 0.8311 0.8303 0.8295
2195.000000 0.8283 0.8272 0.8260 0.8249 0.8237
2200.000000 0.8225 0.8213 0.8202 0.8190 0.8179
2205.000000 0.8164 0.8150 0.8135 0.8120 0.8105
2210.000000 0.8091 0.8082 0.8074 0.8067 0.8060
2215.000000 0.8053 0.8047 0.8038 0.8030 0.8021
2220.000000 0.8012 0.8003 0.7994 0.7980 0.7967
2225.000000 0.7941 0.7916 0.7905 0.7895 0.7887
2230.000000 0.7880 0.7876 0.7873 0.7873 0.7873
2235.000000 0.7883 0.7873 0.7910 0.7926 0.7948
2240.000000 0.7971 0.7990 0.8009 0.8024 0.8040
2245.000000 0.8043 0.8046 0.8047 0.8049 0.8050
2250.000000 0.8052 0.8054 0.8056 0.8058 0.8060
2255.000000 0.8062 0.8065 0.8067 0.8069 0.8072
2260.000000 0.8075 0.8078 0.8082 0.8087 0.8092
2265.000000 0.8101 0.8110 0.8119 0.8128 0.8141
2270.000000 0.8155 0.8168 0.8181 0.8198 0.8215
2275.000000 0.8234 0.8253 0.8271 0.8289 0.8305
2280.000000 0.8322 0.8338 0.8354 0.8366 0.8378
2285.000000 0.8387 0.8397 0.8400 0.8404 0.8407
2290.000000 0.8411 0.8414 0.8418 0.8421 0.8425
2295.000000 0.8428 0.8432 0.8435 0.8439 0.8442
2300.000000 0.8445 0.8448 0.8451 0.8454 0.8458
2305.000000 0.8460 0.8462 0.8464 0.8467 0.8469
2310.000000 0.8471 0.8473 0.8476 0.8478 0.8481
2315.000000 0.8483 0.8485 0.8487 0.8490 0.8492
2320.000000 0.8494 0.8496 0.8499 0.8501 0.8503
2325.000000 0.8505 0.8508 0.8510 0.8512 0.8514
2330.000000 0.8516 0.8518 0.8521 0.8523 0.8525
2335.000000 0.8526 0.8527 0.8526 0.8526 0.8525
2340.000000 0.8525 0.8527 0.8529 0.8531 0.8534
2345.000000 0.8540 0.8547 0.8559 0.8572 0.8587
2350.000000 0.8603 0.8619 0.8635 0.8640 0.8646
2355.000000 0.8651 0.8657 0.8655 0.8653 0.8648
2360.000000 0.8644 0.8637 0.8631 0.8624 0.8617
2365.000000 0.8610 0.8604 0.8598 0.8592 0.8585
2370.000000 0.8579 0.8573 0.8567 0.8561 0.8555
2375.000000 0.8550 0.8545 0.8539 0.8534 0.8528
2380.000000 0.8523 0.8519 0.8516 0.8514 0.8513
2385.000000 0.8511 0.8510 0.8508 0.8506 0.8504
2390.000000 0.8503 0.8503 0.8503 0.8502 0.8502
2395.000000 0.8502 0.8502 0.8501 0.8501 0.8501
2400.000000 0.8501 0.8501 0.8501 0.8500 0.8500
2405.000000 0.8500 0.8500 0.8499 0.8499 0.8498
2410.000000 0.8498 0.8497 0.8497 0.8496 0.8496
2415.000000 0.8496 0.8497 0.8497 0.8497 0.8497
2420.000000 0.8497 0.8497 0.8498 0.8498 0.8498
2425.000000 0.8498 0.8498 0.8498 0.8498 0.8498
2430.000000 0.8499 0.8499 0.8499 0.8499 0.8499
2435.000000 0.8499 0.8500 0.8500 0.8500 0.8500
2440.000000 0.8509 0.8500 0.8500 0.8500 0.8501
2445.000000 0.8501 0.8501 0.8501 0.8501 0.8501
2450.000000 0.8501 0.8501 0.8501 0.8501 0.8501
2455.000000 0.8501 0.8501 0.8501 0.8501 0.8500
2460.000000 0.8500 0.8500 0.8500 0.8500 0.8500
2465.000000 0.8500 0.8500 0.8500 0.8500 0.8500
2470.000000 0.8500 0.8499 0.8499 0.8499 0.8499
2475.000000 0.8499 0.8499 0.8499 0.8499 0.8498
2480.000000 0.8498 0.8497 0.8496 0.8495 0.8495
2485.000000 0.8494 0.8493 0.8492 0.8492 0.8491
2490.000000 0.8490 0.8489 0.8489 0.8488 0.8487
2495.000000 0.8486 0.8486 0.8485 0.8484 0.8483
2500.000000 0.8483 0.8482 0.8481 0.8480 0.8480
2505.000000 0.8479 0.8478 0.8477 0.8477 0.8475
2510.000000 0.8474 0.8473 0.8472 0.8471 0.8470
2515.000000 0.8468 0.8467 0.8466 0.8465 0.8464
2520.000000 0.8463 0.8462 0.8461 0.8459 0.8458
2525.000000 0.8457 0.8456 0.8455 0.8454 0.8452
2530.000000 0.8451 0.8450 0.8449 0.8448 0.8447
2535.000000 0.8445 0.8444 0.8442 0.8441 0.8439
2540.000000 0.8438 0.8436 0.8434 0.8432 0.8430
2545.000000 0.8428 0.8426 0.8424 0.8422 0.8420
2550.000000 0.8418 0.8412 0.8407 0.8400 0.8394
2555.000000 0.8387 0.8380 0.8371 0.8362 0.8352
2560.000000 0.8343 0.8333 0.8324 0.8314 0.8305
2565.000000 0.8294 0.8284 0.8273 0.8262 0.8251
2570.000000 0.8241 0.8230 0.8219 0.8207 0.8195
2575.000000 0.8181 0.8168 0.8154 0.8141 0.8133
2580.000000 0.8125 0.8118 0.8112 0.8105 0.8098
2585.000000 0.8091 0.8085 0.8080 0.8075 0.8071
2590.000000 0.8068 0.8064 0.8060 0.8056 0.8053
2595.000000 0.8053 0.8054 0.8054 0.8055 0.8055
2600.000000 0.8034 0.8057 0.8059 0.8062 0.8065
2605.000000 0.8068 0.8071 0.8079 0.8087 0.8103
2610.000000 0.8119 0.8140 0.8162 0.8169 0.8177
2615.000000 0.8176 0.8207 0.8170 0.8166 0.8159
2620.000000 0.8152 0.8138 0.8124 0.8113 0.8102
2625.000000 0.8091 0.8080 0.8066 0.8053 0.8036
2630.000000 0.8020 0.8003 0.7987 0.7966 0.7945
2635.000000 0.7923 0.7902 0.7882 0.7862 0.7844
2640.000000 0.7827 0.7809 0.7792 0.7774 0.7757
2645.000000 0.7743 0.7729 0.7716 0.7703 0.7690
2650.000000 0.7678 0.7672 0.7666 0.7663 0.7661
2655.000000 0.7658 0.7656 0.7659 0.7670 0.7670
2660.000000 0.7677 0.7688 0.7700 0.7713 0.7727
2665.000000 0.7746 0.7766 0.7794 0.7822 0.7852
2670.000000 0.7882 0.7911 0.7941 0.7969 0.7998
2675.000000 0.8022 0.8046 0.8072 0.8099 0.8126
2680.000000 0.8154 0.8180 0.8206 0.8227 0.8248
2685.000000 0.8269 0.8290 0.8325 0.8360 0.8385
2690.000000 0.8410 0.8415 0.8421 0.8426 0.8432
2695.000000 0.8437 0.8443 0.8448 0.8453 0.8456
2700.000000 0.8460 0.8464 0.8468 0.8471 0.8474
2705.000000 0.8475 0.8477 0.8478 0.8480 0.8481
2710.000000 0.8482 0.8483 0.8485 0.8486 0.8488
2715.000000 0.8489 0.8490 0.8491 0.8493 0.8493
2720.000000 0.8494 0.8495 0.8496 0.8496 0.8497
2725.000000 0.8498 0.8499 0.8500 0.8501 0.8501
2730.000000 0.8502 0.8503 0.8504 0.8504 0.8505
2735.000000 0.8506 0.8507 0.8508 0.8509 0.8509
2740.000000 0.8510 0.8511 0.8512 0.8512 0.8513
2745.000000 0.8512 0.8512 0.8512 0.8512 0.8512
2750.000000 0.8512 0.8511 0.8511 0.8511 0.8511
2755.000000 0.8511 0.8511 0.8511 0.8511 0.8510
2760.000000 0.8510 0.8510 0.8510 0.8510 0.8510
2765.000000 0.8510 0.8510 0.8510 0.8510 0.8510
2770.000000 0.8511 0.8511 0.8511 0.8511 0.8511
2775.000000 0.8511 0.8512 0.8512 0.8512 0.8512
2780.000000 0.8512 0.8512 0.8512 0.8512 0.8513
2785.000000 0.8513 0.8513 0.8513 0.8513 0.8513
2790.000000 0.8514 0.8514 0.8514 0.8514 0.8514
2795.000000 0.8514 0.8514 0.8514 0.8515 0.8515
2800.000000 0.8515 0.8515 0.8515 0.8515 0.8516
2805.000000 0.8516 0.8516 0.8516 0.8516 0.8516
2810.000000 0.8517 0.8517 0.8517 0.8517 0.8517
2815.000000 0.8517 0.8518 0.8518 0.8518 0.8518
2820.000000 0.8518 0.8518 0.8519 0.8519 0.8519
2825.000000 0.8519 0.8519 0.8519 0.8505 0.8520
2830.000000 0.8520 0.8520 0.8520 0.8520 0.8521
2835.000000 0.8521 0.8521 0.8521 0.8521 0.8521
2840.000000 0.8522 0.8522 0.8522 0.8522 0.8522
2845.000000 0.8522 0.8523 0.8523 0.8523 0.8523
2850.000000 0.8523 0.8523 0.8524 0.8524 0.8524
2855.000000 0.8524 0.8525 0.8525 0.8525 0.8524
2860.000000 0.8524 0.8523 0.8523 0.8522 0.8522
2865.000000 0.8521 0.8521 0.8520 0.8519 0.8518
2870.000000 0.8518 0.8517 0.8517 0.8516 0.8516
2875.000000 0.8515 0.8515 0.8514 0.8514 0.8513
2880.000000 0.8513 0.8512 0.8512 0.8511 0.8511
2885.000000 0.8510 0.8510 0.8509 0.8509 0.8508
2890.000000 0.8508 0.8507 0.8507 0.8506 0.8506
2895.000000 0.8506 0.8506 0.8505 0.8505 0.8504
2900.000000 0.8504 0.8503 0.8503 0.8502 0.8502
2905.000000 0.8501 0.8501 0.8501 0.8501 0.8500
2910.000000 0.8500 0.8499 0.8499 0.8499 0.8499
2915.000000 0.8498 0.8498 0.8498 0.8498 0.8497
2920.000000 0.8497 0.8497 0.8497 0.8496 0.8496
2925.000000 0.8496 0.8496 0.8495 0.8495 0.8494
2930.000000 0.8494 0.8494 0.8494 0.8493 0.8493
2935.000000 0.8493 0.8494 0.8494 0.8495 0.8495
2940.000000 0.8496 0.8496 0.8497 0.8497 0.8498
2945.000000 0.8498 0.8499 0.8499 0.8500 0.8501
2950.000000 0.8502 0.8502 0.8502 0.8502 0.8503
2955.000000 0.8503 0.8503 0.8503 0.8504 0.8504
2960.000000 0.8504 0.8504 0.8505 0.8505 0.8505
2965.000000 0.8505 0.8506 0.8505 0.8505 0.8504
2970.000000 0.8504 0.8503 0.8502 0.8501 0.8501
2975.000000 0.8500 0.8499 0.8498 0.8497 0.8496
2980.000000 0.8496 0.8495 0.8494 0.8493 0.8492
2985.000000 0.8491 0.8491 0.8490 0.8489 0.8488
2990.000000 0.8487 0.8486 0.8486 0.8485 0.8484
2995.000000 0.8482 0.8481 0.8479 0.8477 0.8475
3000.000000 0.8473 0.8471 0.8469 0.8467 0.8465
3005.000000 0.8463 0.8461 0.8459 0.8458 0.8456
3010.000000 0.8454 0.8449 0.8444 0.8438 0.8433
3015.000000 0.8428 0.8423 0.8414 0.8405 0.8393
3020.000000 0.8381 0.8369 0.8357 0.8345 0.8333
3025.000000 0.8317 0.8301 0.8285 0.8269 0.8253
3030.000000 0.8237 0.8220 0.8203 0.8183 0.8163
3035.000000 0.8143 0.8123 0.8104 0.8086 0.8067
3040.000000 0.8049 0.8042 0.8036 0.8031 0.8027
3045.000000 0.8026 0.8025 0.8024 0.8024 0.8023
3050.000000 0.8022 0.8021 0.8021 0.8020 0.8019
3055.000000 0.8019 0.8019 0.8018 0.8018 0.8017
3060.000000 0.8017 0.8016 0.8016 0.8015 0.8013
3065.000000 0.8014 0.8013 0.8019 0.8026 0.8034
3070.000000 0.8043 0.8051 0.8059 0.8066 0.8074
3075.000000 0.8082 0.8090 0.8095 0.8101 0.8106
3080.000000 0.8111 0.8111 0.8112 0.8110 0.8109
3085.000000 0.8107 0.8106 0.8105 0.8105 0.8104
3090.000000 0.8104 0.8103 0.8103 0.8103 0.8103
3095.000000 0.8104 0.8106 0.8107 0.8109 0.8110
3100.000000 0.8112 0.8115 0.8118 0.8123 0.8128
3105.000000 0.8133 0.8138 0.8144 0.8151 0.8162
3110.000000 0.8173 0.8183 0.8194 0.8205 0.8217
3115.000000 0.8230 0.8243 0.8256 0.8270 0.8283
3120.000000 0.8296 0.8306 0.8317 0.8328 0.8339
3125.000000 0.8350 0.8361 0.8373 0.8385 0.8398
3130.000000 0.8412 0.8414 0.8416 0.8416 0.8416
3135.000000 0.8416 0.8416 0.8416 0.8416 0.8416
3140.000000 0.8416 0.8416 0.8416 0.8416 0.8417
3145.000000 0.8417 0.8418 0.8418 0.8419 0.8419
3150.000000 0.8420 0.8420 0.8421 0.8421 0.8422
3155.000000 0.8422 0.8423 0.8424 0.8425 0.8427
3160.000000 0.8430 0.8432 0.8435 0.8437 0.8439
3165.000000 0.8441 0.8444 0.8447 0.8451 0.8454
3170.000000 0.8458 0.8461 0.8465 0.8469 0.8473
3175.000000 0.8476 0.8480 0.8483 0.8487 0.8491
3180.000000 0.8496 0.8500 0.8505 0.8510 0.8515
3185.000000 0.8520 0.8525 0.8530 0.8535 0.8539
3190.000000 0.8543 0.8547 0.8551 0.8552 0.8553
3195.000000 0.8553 0.8553 0.8552 0.8552 0.8552
3200.000000 0.8552 0.8551 0.8551 0.8550 0.8550
3205.000000 0.8550 0.8550 0.8550 0.8550 0.8550
3210.000000 0.8550 0.8550 0.8550 0.8550 0.8550
3215.000000 0.8550 0.8550 0.8550 0.8550 0.8550
3220.000000 0.8550 0.8550 0.8550 0.8550 0.8551
3225.000000 0.8551 0.8551 0.8551 0.8551 0.8551
3230.000000 0.8551 0.8551 0.8551 0.8551 0.8551
3235.000000 0.8551 0.8551 0.8551 0.8551 0.8551
3240.000000 0.8551 0.8551 0.8551 0.8551 0.8559
3245.000000 0.8551 0.8551 0.8551 0.8551 0.8551
3250.000000 0.8552 0.8552 0.8552 0.8552 0.8552
3255.000000 0.8552 0.8552 0.8552 0.8552 0.8552
3260.000000 0.8552 0.8552 0.8552 0.8552 0.8552
3265.000000 0.8552 0.8552 0.8552 0.8553 0.8553
3270.000000 0.8553 0.8553 0.8554 0.8554 0.8555
3275.000000 0.8555 0.8556 0.8556 0.8556 0.8556
3280.000000 0.8557 0.8557 0.8558 0.8558 0.8558
3285.000000 0.8558 0.8559 0.8559 0.8560 0.8560
3290.000000 0.8560 0.8560 0.8561 0.8561 0.8561
3295.000000 0.8561 0.8561 0.8561 0.8561 0.8561
3300.000000 0.8561 0.8561 0.8561 0.8561 0.8561
3305.000000 0.8561 0.8561 0.8561 0.8561 0.8561
3310.000000 0.8562 0.8562 0.8562 0.8561 0.8561
3315.000000 0.8561 0.8561 0.8561 0.8561 0.8561
3320.000000 0.8561 0.8561 0.8561 0.8560 0.8560
3325.000000 0.8560 0.8560 0.8560 0.8560 0.8560
3330.000000 0.8560 0.8559 0.8559 0.8559 0.8559
3335.000000 0.8559 0.8559 0.8559 0.8559 0.8560
3340.000000 0.8561 0.8562 0.8563 0.8564 0.8566
3345.000000 0.8567 0.8568 0.8569 0.8570 0.8571
3350.000000 0.8572 0.8573 0.8574 0.8575 0.8577
3355.000000 0.8578 0.8579 0.8580 0.8581 0.8582
3360.000000 0.8583 0.8583 0.8583 0.8583 0.8583
3365.000000 0.8583 0.8583 0.8583 0.8583 0.8583
3370.000000 0.8583 0.8583 0.8583 0.8583 0.8583
3375.000000 0.8583 0.8583 0.8583 0.8583 0.8583
3380.000000 0.8583 0.8583 0.8584 0.8584 0.8584
3385.000000 0.8584 0.8584 0.8584 0.8584 0.8584
3390.000000 0.8584 0.8584 0.8584 0.8583 0.8583
3395.000000 0.8583 0.8583 0.8582 0.8582 0.8582
3400.000000 0.8582 0.8581 0.8581 0.8580 0.8579
3405.000000 0.8574 0.8570 0.8565 0.8561 0.8557
3410.000000 0.8553 0.8548 0.8544 0.8539 0.8535
3415.000000 0.8529 0.8524 0.8517 0.8510 0.8503
3420.000000 0.8497 0.8490 0.8483 0.8476 0.8470
3425.000000 0.8465 0.8461 0.8456 0.8452 0.8447
3430.000000 0.8442 0.8437 0.8433 0.8428 0.8424
3435.000000 0.8423 0.8422 0.8421 0.8420 0.8419
3440.000000 0.8418 0.8417 0.8416 0.8415 0.8424
3445.000000 0.8414 0.8414 0.8417 0.8420 0.8423
3450.000000 0.8426 0.8428 0.8431 0.8434 0.8437
3455.000000 0.8441 0.8445 0.8449 0.8453 0.8457
3460.000000 0.8461 0.8465 0.8470 0.8478 0.8486
3465.000000 0.8493 0.8501 0.8508 0.8515 0.8521
3470.000000 0.8528 0.8534 0.8541 0.8547 0.8554
3475.000000 0.8560 0.8567 0.8571 0.8576 0.8580
3480.000000 0.8584 0.8588 0.8593 0.8596 0.8600
3485.000000 0.8600 0.8601 0.8602 0.8603 0.8604
3490.000000 0.8605 0.8606 0.8607 0.8607 0.8608
3495.000000 0.8609 0.8610 0.8610 0.8611 0.8611
3500.000000 0.8612 0.8612 0.8613 0.8613 0.8614
3505.000000 0.8614 0.8614 0.8614 0.8615 0.8615
3510.000000 0.8615 0.8614 0.8614 0.8613 0.8612
3515.000000 0.8611 0.8611 0.8610 0.8610 0.8609
3520.000000 0.8608 0.8607 0.8607 0.8606 0.8606
3525.000000 0.8605 0.8605 0.8605 0.8605 0.8605
3530.000000 0.8605 0.8605 0.8606 0.8606 0.8607
3535.000000 0.8607 0.8607 0.8607 0.8608 0.8608
3540.000000 0.8608 0.8608 0.8609 0.8609 0.8610
3545.000000 0.8612 0.8614 0.8616 0.8619 0.8621
3550.000000 0.8623 0.8625 0.8627 0.8629 0.8631
3555.000000 0.8633 0.8636 0.8636 0.8636 0.8636
3560.000000 0.8637 0.8637 0.8637 0.8637 0.8637
3565.000000 0.8637 0.8637 0.8636 0.8636 0.8635
3570.000000 0.8635 0.8634 0.8634 0.8633 0.8633
3575.000000 0.8632 0.8632 0.8631 0.8630 0.8629
3580.000000 0.8629 0.8628 0.8627 0.8626 0.8626
3585.000000 0.8625 0.8624 0.8623 0.8622 0.8621
3590.000000 0.8621 0.8620 0.8619 0.8630 0.8642
3595.000000 0.8660 0.8679 0.8703 0.8727 0.8728
3600.000000 0.8730 0.8724 0.8718 0.8706 0.8695
3605.000000 0.8679 0.8664 0.8654 0.8645 0.8638
3610.000000 0.8632 0.8630 0.8629 0.8627 0.8626
3615.000000 0.8624 0.8623 0.8623 0.8623 0.8623
3620.000000 0.8624 0.8624 0.8624 0.8624 0.8624
3625.000000 0.8626 0.8628 0.8630 0.8633 0.8635
3630.000000 0.8637 0.8638 0.8639 0.8638 0.8637
3635.000000 0.8636 0.8635 0.8634 0.8633 0.8632
3640.000000 0.8631 0.8630 0.8647 0.8628 0.8627
3645.000000 0.8626 0.8625 0.8626 0.8627 0.8628
3650.000000 0.8629 0.8629 0.8630 0.8631 0.8632
3655.000000 0.8632 0.8632 0.8631 0.8630 0.8629
3660.000000 0.8629 0.8626 0.8624 0.8620 0.8616
3665.000000 0.8611 0.8607 0.8602 0.8598 0.8593
3670.000000 0.8588 0.8583 0.8579 0.8576 0.8574
3675.000000 0.8572 0.8571 0.8569 0.8568 0.8571
3680.000000 0.8574 0.8577 0.8581 0.8584 0.8588
3685.000000 0.8593 0.8599 0.8604 0.8609 0.8612
3690.000000 0.8615 0.8618 0.8622 0.8624 0.8627
3695.000000 0.8627 0.8628 0.8628 0.8629 0.8629
3700.000000 0.8630 0.8631 0.8632 0.8633 0.8634
3705.000000 0.8635 0.8636 0.8637 0.8638 0.8639
3710.000000 0.8640 0.8641 0.8642 0.8643 0.8645
3715.000000 0.8646 0.8648 0.8649 0.8651 0.8652
3720.000000 0.8654 0.8655 0.8657 0.8659 0.8661
3725.000000 0.8663 0.8666 0.8667 0.8669 0.8665
3730.000000 0.8662 0.8656 0.8650 0.8644 0.8638
3735.000000 0.8633 0.8629 0.8625 0.8621 0.8618
3740.000000 0.8615 0.8613 0.8611 0.8609 0.8607
3745.000000 0.8606 0.8605 0.8604 0.8603 0.8602
3750.000000 0.8602 0.8601 0.8600 0.8599 0.8599
3755.000000 0.8598 0.8598 0.8597 0.8597 0.8596
3760.000000 0.8596 0.8595 0.8595 0.8596 0.8597
3765.000000 0.8598 0.8600 0.8602 0.8604 0.8605
3770.000000 0.8607 0.8609 0.8612 0.8617 0.8622
3775.000000 0.8628 0.8635 0.8645 0.8656 0.8666
3780.000000 0.8676
##END=
