##TITLE=TERT-BUTYLAMINE
$$ E.K. (W.L.)
##JCAMP-DX=4.24
##DATA TYPE=INFRARED SPECTRUM
##CLASS=COBLENTZ
##ORIGIN=WYANDOTTE CHEMICALS CORP., WYANDOTTE, MICHIGAN, USA
##OWNER=COBLENTZ SOCIETY
Collection (C) 2018 copyright by the U.S. Secretary of Commerce
on behalf of the United States of America. All rights reserved.
##DATE=Not specified, most likely prior to 1970
##NAMES=2-methyl-2-propanamine
##CAS REGISTRY NO=75-64-9
##MOLFORM=C4 H11 N
##BP=44-45 C
##SOURCE REFERENCE=COBLENTZ NO. 1391
##$NIST SOURCE=COBLENTZ
##$NIST IMAGE=cob1391
##SPECTROMETER/DATA SYSTEM=Not specified, most likely a prism, grating, or hybrid spectrometer.
##STATE=LIQUID
##PATH LENGTH=0.003 CM
##SAMPLING PROCEDURE=TRANSMISSION
##RESOLUTION=4
##DATA PROCESSING=DIGITIZED BY NIST FROM HARD COPY
##XUNITS=MICROMETERS
##YUNITS=TRANSMITTANCE
##XFACTOR=1.000000
##YFACTOR=1
##DELTAX=000.006803
##FIRSTX=2.068
##LASTX=15.9936
##FIRSTY=0.972
##MAXX=15.9936
##MINX=2.068
##MAXY=0.971
##MINY=0.062
##NPOINTS=2048
##XYDATA=(X++(Y..Y))
2.068000 0.9720 0.9710 0.9710 0.9690 0.9710
2.102030 0.9710 0.9710 0.9710 0.9690 0.9690
2.136000 0.9670 0.9670 0.9660 0.9660 0.9660
2.170030 0.9640 0.9640 0.9620 0.9550 0.9500
2.204000 0.9420 0.9370 0.9320 0.9300 0.9260
2.238030 0.9250 0.9210 0.9200 0.9180 0.9180
2.272000 0.9180 0.9180 0.9180 0.9160 0.9160
2.306030 0.9180 0.9180 0.9180 0.9200 0.9200
2.340000 0.9200 0.9200 0.9210 0.9230 0.9280
2.374030 0.9320 0.9330 0.9380 0.9420 0.9420
2.408000 0.9420 0.9420 0.9430 0.9430 0.9420
2.442030 0.9400 0.9400 0.9420 0.9420 0.9430
2.476000 0.9430 0.9430 0.9420 0.9420 0.9420
2.510030 0.9420 0.9430 0.9430 0.9450 0.9430
2.544000 0.9430 0.9430 0.9420 0.9420 0.9420
2.578030 0.9400 0.9380 0.9380 0.9400 0.9420
2.612000 0.9450 0.9470 0.9500 0.9520 0.9520
2.646030 0.9540 0.9540 0.9550 0.9550 0.9540
2.680000 0.9540 0.9500 0.9470 0.9400 0.9380
2.714030 0.9370 0.9370 0.9350 0.9330 0.9320
2.748000 0.9320 0.9320 0.9300 0.9260 0.9210
2.782030 0.9150 0.9060 0.8980 0.8890 0.8810
2.816000 0.8760 0.8670 0.8570 0.8530 0.8480
2.850030 0.8380 0.8370 0.8280 0.8210 0.8180
2.884000 0.8140 0.8130 0.8090 0.8030 0.7970
2.918030 0.7890 0.7750 0.7670 0.7580 0.7470
2.952000 0.7380 0.7330 0.7310 0.7280 0.7180
2.986030 0.7070 0.6910 0.6380 0.5870 0.5840
3.020000 0.5870 0.5900 0.6120 0.6260 0.6260
3.054030 0.5970 0.5840 0.5720 0.5720 0.5780
3.088000 0.5990 0.6070 0.6160 0.6190 0.6280
3.122030 0.6360 0.6380 0.6400 0.6380 0.6360
3.156000 0.6330 0.6340 0.6380 0.6460 0.6570
3.190030 0.6720 0.6870 0.6970 0.7110 0.7210
3.224000 0.7280 0.7310 0.7350 0.7380 0.7410
3.258030 0.7470 0.7470 0.7410 0.7380 0.7350
3.293000 0.7260 0.7180 0.7010 0.6770 0.6400
3.327030 0.5510 0.4480 0.3530 0.2880 0.2440
3.361000 0.1560 0.0640 0.0620 0.0660 0.0830
3.395030 0.0930 0.1170 0.1340 0.1510 0.1690
3.429000 0.1880 0.2020 0.2080 0.2130 0.2290
3.463030 0.2390 0.2460 0.2390 0.2340 0.2340
3.497000 0.2370 0.2920 0.3560 0.4140 0.4710
3.531030 0.5090 0.5870 0.6500 0.6870 0.7010
3.565000 0.7090 0.7180 0.7360 0.7570 0.7670
3.599030 0.7860 0.7910 0.7970 0.7990 0.8010
3.633000 0.8080 0.8130 0.8160 0.8160 0.8140
3.667030 0.8110 0.8110 0.8110 0.8110 0.8110
3.701000 0.8130 0.8130 0.8140 0.8200 0.8260
3.735030 0.8300 0.8310 0.8310 0.8330 0.8400
3.769000 0.8480 0.8530 0.8590 0.8640 0.8650
3.803030 0.8670 0.8670 0.8670 0.8650 0.8650
3.837000 0.8620 0.8620 0.8620 0.8620 0.8620
3.871030 0.8650 0.8650 0.8690 0.8720 0.8740
3.905000 0.8760 0.8760 0.8770 0.8790 0.8790
3.939030 0.8790 0.8790 0.8790 0.8770 0.8790
3.973000 0.8790 0.8770 0.8770 0.8770 0.8770
4.007030 0.8790 0.8790 0.8790 0.8790 0.8790
4.041000 0.8770 0.8770 0.8760 0.8720 0.8650
4.075030 0.8650 0.8720 0.8720 0.8760 0.8770
4.109000 0.8760 0.8740 0.8700 0.8690 0.8740
4.143030 0.8740 0.8760 0.8770 0.8760 0.8760
4.177000 0.8760 0.8760 0.8760 0.8770 0.8760
4.211030 0.8760 0.8740 0.8720 0.8720 0.8720
4.245000 0.8720 0.8740 0.8740 0.8770 0.8840
4.279030 0.8870 0.8960 0.8990 0.9010 0.9060
4.313000 0.9110 0.9150 0.9160 0.9200 0.9210
4.347030 0.9210 0.9210 0.9210 0.9180 0.9160
4.381000 0.9110 0.9060 0.8990 0.8980 0.8980
4.415030 0.8960 0.8960 0.8860 0.8810 0.8790
4.449000 0.8790 0.8790 0.8790 0.8790 0.8790
4.483030 0.8770 0.8790 0.8810 0.8820 0.8840
4.517000 0.8860 0.8870 0.8910 0.8960 0.8960
4.551030 0.8990 0.8990 0.8960 0.8940 0.8960
4.585000 0.8960 0.8980 0.8980 0.8990 0.8990
4.619030 0.8990 0.9010 0.8990 0.8990 0.8990
4.653000 0.9010 0.9010 0.9030 0.9040 0.9060
4.687030 0.9060 0.9060 0.9060 0.9010 0.9010
4.721000 0.9040 0.9040 0.9040 0.9040 0.9040
4.755030 0.9030 0.9010 0.9010 0.8960 0.8940
4.789000 0.8870 0.8840 0.8820 0.8820 0.8810
4.823030 0.8820 0.8860 0.8870 0.8870 0.8860
4.857000 0.8860 0.8840 0.8820 0.8810 0.8790
4.891030 0.8810 0.8810 0.8810 0.8810 0.8810
4.925000 0.8810 0.8810 0.8820 0.8840 0.8860
4.959030 0.8860 0.8860 0.8860 0.8870 0.8870
4.993000 0.8860 0.8860 0.8840 0.8860 0.8840
5.027030 0.8840 0.8840 0.8840 0.8820 0.8840
5.061000 0.8820 0.8810 0.8810 0.8790 0.8790
5.095030 0.8790 0.8790 0.8790 0.8790 0.8810
5.129000 0.8820 0.8820 0.8840 0.8840 0.8840
5.163030 0.8840 0.8840 0.8840 0.8840 0.8840
5.197000 0.8840 0.8840 0.8820 0.8820 0.8810
5.231030 0.8820 0.8810 0.8810 0.8790 0.8810
5.265000 0.8810 0.8820 0.8790 0.8790 0.8810
5.299030 0.8810 0.8810 0.8810 0.8810 0.8810
5.333000 0.8810 0.8810 0.8810 0.8810 0.8790
5.367030 0.8790 0.8770 0.8760 0.8760 0.8760
5.401000 0.8740 0.8760 0.8760 0.8760 0.8760
5.435030 0.8760 0.8740 0.8740 0.8740 0.8720
5.469000 0.8720 0.8700 0.8700 0.8690 0.8690
5.503030 0.8670 0.8670 0.8670 0.8650 0.8620
5.537000 0.8600 0.8600 0.8590 0.8600 0.8620
5.571030 0.8620 0.8620 0.8640 0.8640 0.8620
5.605000 0.8600 0.8600 0.8600 0.8620 0.8600
5.639030 0.8600 0.8600 0.8600 0.8600 0.8600
5.673000 0.8590 0.8570 0.8520 0.8520 0.8520
5.707030 0.8520 0.8520 0.8520 0.8520 0.8520
5.741000 0.8520 0.8520 0.8500 0.8480 0.8470
5.775030 0.8470 0.8450 0.8470 0.8470 0.8400
5.810000 0.8370 0.8330 0.8280 0.8260 0.8250
5.844030 0.8250 0.8250 0.8250 0.8250 0.8210
5.878000 0.8160 0.8110 0.8090 0.8040 0.7990
5.912030 0.7970 0.7970 0.7870 0.7800 0.7720
5.946000 0.7650 0.7580 0.7580 0.7580 0.7520
5.980030 0.7430 0.7350 0.7280 0.7240 0.7160
6.014000 0.7110 0.7040 0.7010 0.6970 0.6820
6.048030 0.6670 0.6550 0.6410 0.6360 0.6310
6.082000 0.6260 0.6040 0.5870 0.5800 0.5770
6.116030 0.5680 0.5560 0.5410 0.5280 0.5170
6.150000 0.5070 0.4990 0.4880 0.4880 0.4870
6.184030 0.4820 0.4770 0.4710 0.4710 0.4730
6.218000 0.4730 0.4780 0.4850 0.4880 0.4970
6.252030 0.4970 0.5090 0.5170 0.5220 0.5310
6.286000 0.5380 0.5480 0.5560 0.5670 0.5770
6.320030 0.5800 0.5870 0.5970 0.5990 0.6020
6.354000 0.6070 0.6120 0.6170 0.6260 0.6340
6.388030 0.6450 0.6480 0.6550 0.6600 0.6670
6.422000 0.6700 0.6720 0.6770 0.6790 0.6870
6.456030 0.6970 0.6970 0.7010 0.7060 0.7130
6.490000 0.7180 0.7210 0.7260 0.7280 0.7280
6.524030 0.7260 0.7210 0.7130 0.6990 0.6920
6.558000 0.6870 0.6910 0.6920 0.6990 0.7060
6.592030 0.7070 0.7060 0.7060 0.7040 0.7010
6.626000 0.7010 0.6970 0.6890 0.6790 0.6750
6.660030 0.6670 0.6570 0.6380 0.6260 0.6090
6.694000 0.5890 0.5770 0.5560 0.5280 0.4990
6.728030 0.4560 0.4120 0.3710 0.3530 0.3140
6.762000 0.3120 0.3140 0.3370 0.3540 0.3610
6.796030 0.3880 0.4140 0.4440 0.4660 0.4770
6.830000 0.4990 0.5220 0.5310 0.5380 0.5480
6.864030 0.5580 0.5770 0.6020 0.6140 0.6190
6.898000 0.6310 0.6480 0.6510 0.6580 0.6670
6.932030 0.6770 0.6890 0.7060 0.7130 0.7140
6.966000 0.7160 0.7240 0.7280 0.7310 0.7350
7.000030 0.7380 0.7410 0.7450 0.7470 0.7470
7.034000 0.7470 0.7410 0.7400 0.7380 0.7360
7.068030 0.7330 0.7310 0.7280 0.7230 0.7190
7.102000 0.7140 0.7060 0.6970 0.6770 0.6670
7.136030 0.6480 0.6110 0.5600 0.5020 0.4610
7.170000 0.4430 0.4210 0.4210 0.4270 0.4480
7.204030 0.4730 0.4900 0.5070 0.5050 0.5000
7.238000 0.4970 0.4680 0.4380 0.4000 0.3310
7.272030 0.2580 0.2080 0.1790 0.1520 0.1340
7.306000 0.1250 0.1230 0.1230 0.1680 0.2080
7.340030 0.2510 0.3020 0.3610 0.4270 0.4780
7.374000 0.5290 0.5650 0.5990 0.6190 0.6400
7.408030 0.6580 0.6790 0.6970 0.7060 0.7110
7.442000 0.7190 0.7260 0.7330 0.7360 0.7400
7.476030 0.7410 0.7470 0.7470 0.7470 0.7410
7.510000 0.7400 0.7360 0.7300 0.7260 0.7210
7.544030 0.7160 0.7130 0.7110 0.7060 0.7020
7.578000 0.7020 0.7040 0.7090 0.7130 0.7190
7.612030 0.7230 0.7260 0.7280 0.7310 0.7330
7.646000 0.7350 0.7350 0.7350 0.7350 0.7360
7.680030 0.7380 0.7380 0.7380 0.7400 0.7380
7.714000 0.7380 0.7380 0.7360 0.7350 0.7350
7.748030 0.7350 0.7330 0.7310 0.7280 0.7230
7.782000 0.7190 0.7160 0.7090 0.7020 0.6970
7.816030 0.6870 0.6820 0.6800 0.6770 0.6700
7.850000 0.6650 0.6570 0.6510 0.6480 0.6410
7.884030 0.6380 0.6210 0.6070 0.5870 0.5770
7.918000 0.5670 0.5480 0.5280 0.4900 0.4580
7.952030 0.4270 0.3980 0.3900 0.3650 0.3190
7.986000 0.2750 0.2320 0.2170 0.2120 0.2000
8.020030 0.2000 0.2020 0.2130 0.2290 0.2490
8.054000 0.2610 0.2710 0.2810 0.2980 0.3000
8.088030 0.3030 0.3070 0.3080 0.3070 0.2970
8.122000 0.2710 0.2520 0.2460 0.2290 0.2190
8.156030 0.2080 0.1930 0.1910 0.1900 0.1930
8.190000 0.2050 0.2130 0.2370 0.2520 0.2690
8.224030 0.2800 0.2980 0.3120 0.3310 0.3560
8.259000 0.3760 0.3980 0.4170 0.4270 0.4410
8.293030 0.4560 0.4710 0.4880 0.5040 0.5210
8.327000 0.5260 0.5330 0.5410 0.5550 0.5680
8.361030 0.5850 0.5900 0.5970 0.6020 0.6090
8.395000 0.6140 0.6210 0.6330 0.6510 0.6770
8.429030 0.6870 0.6910 0.6970 0.7010 0.7070
8.463000 0.7140 0.7210 0.7260 0.7300 0.7330
8.497030 0.7380 0.7400 0.7400 0.7410 0.7410
8.531000 0.7430 0.7430 0.7450 0.7520 0.7580
8.565030 0.7670 0.7700 0.7700 0.7740 0.7750
8.599000 0.7770 0.7790 0.7800 0.7820 0.7820
8.633030 0.7840 0.7840 0.7860 0.7870 0.7870
8.667000 0.7870 0.7890 0.7890 0.7920 0.7890
8.701030 0.7890 0.7890 0.7890 0.7890 0.7890
8.735000 0.7890 0.7870 0.7840 0.7790 0.7770
8.769030 0.7720 0.7700 0.7690 0.7650 0.7640
8.803000 0.7620 0.7580 0.7580 0.7570 0.7550
8.837030 0.7480 0.7470 0.7400 0.7360 0.7330
8.871000 0.7310 0.7280 0.7230 0.7230 0.7210
8.905030 0.7180 0.7130 0.7090 0.7070 0.7060
8.939000 0.7020 0.7020 0.7020 0.7060 0.7070
8.973030 0.7130 0.7180 0.7230 0.7240 0.7310
9.007000 0.7380 0.7430 0.7480 0.7500 0.7520
9.041030 0.7580 0.7620 0.7670 0.7690 0.7690
9.075000 0.7690 0.7690 0.7700 0.7720 0.7720
9.109030 0.7720 0.7700 0.7700 0.7720 0.7720
9.143000 0.7720 0.7740 0.7740 0.7740 0.7720
9.177030 0.7720 0.7700 0.7700 0.7690 0.7670
9.211000 0.7690 0.7700 0.7700 0.7690 0.7650
9.245030 0.7650 0.7650 0.7650 0.7650 0.7640
9.279000 0.7640 0.7640 0.7640 0.7650 0.7650
9.313030 0.7650 0.7620 0.7600 0.7600 0.7580
9.347000 0.7600 0.7580 0.7580 0.7580 0.7570
9.381030 0.7530 0.7530 0.7480 0.7470 0.7400
9.415000 0.7380 0.7380 0.7360 0.7330 0.7310
9.449030 0.7260 0.7210 0.7180 0.7140 0.7090
9.483000 0.7010 0.6970 0.6890 0.6790 0.6720
9.517030 0.6620 0.6510 0.6460 0.6360 0.6230
9.551000 0.6160 0.5990 0.5890 0.5850 0.5800
9.585030 0.5700 0.5510 0.5430 0.5340 0.5290
9.619000 0.5290 0.5330 0.5340 0.5380 0.5480
9.653030 0.5580 0.5700 0.5920 0.6010 0.6170
9.687000 0.6280 0.6430 0.6570 0.6680 0.6790
9.721030 0.6870 0.6970 0.6970 0.7020 0.7090
9.755000 0.7140 0.7180 0.7190 0.7260 0.7280
9.789030 0.7300 0.7310 0.7330 0.7350 0.7350
9.823000 0.7350 0.7360 0.7350 0.7360 0.7360
9.857030 0.7360 0.7350 0.7330 0.7330 0.7300
9.891000 0.7280 0.7260 0.7240 0.7180 0.7160
9.925030 0.7140 0.7090 0.7090 0.7040 0.7020
9.959000 0.7010 0.7010 0.7010 0.7020 0.7060
9.993030 0.7070 0.7140 0.7190 0.7260 0.7310
10.027000 0.7310 0.7350 0.7360 0.7380 0.7400
10.061030 0.7400 0.7400 0.7410 0.7410 0.7470
10.095000 0.7470 0.7470 0.7470 0.7470 0.7470
10.129030 0.7470 0.7470 0.7470 0.7470 0.7450
10.163000 0.7450 0.7410 0.7400 0.7380 0.7380
10.197030 0.7360 0.7360 0.7330 0.7300 0.7260
10.231000 0.7240 0.7240 0.7210 0.7210 0.7180
10.265030 0.7160 0.7140 0.7090 0.7060 0.7010
10.299000 0.6990 0.6970 0.6970 0.6940 0.6940
10.333030 0.6920 0.6910 0.6850 0.6800 0.6770
10.367000 0.6720 0.6680 0.6650 0.6650 0.6600
10.401030 0.6570 0.6530 0.6500 0.6480 0.6410
10.435000 0.6400 0.6380 0.6360 0.6310 0.6280
10.469030 0.6230 0.6160 0.6140 0.6110 0.6020
10.503000 0.5990 0.5970 0.5950 0.5940 0.5920
10.537030 0.5900 0.5890 0.5870 0.5850 0.5820
10.571000 0.5800 0.5800 0.5800 0.5820 0.5850
10.605030 0.5870 0.5900 0.5920 0.5950 0.5990
10.639000 0.6020 0.6060 0.6090 0.6120 0.6190
10.673030 0.6230 0.6360 0.6460 0.6480 0.6510
10.707000 0.6550 0.6550 0.6570 0.6570 0.6570
10.741030 0.6570 0.6570 0.6530 0.6500 0.6480
10.776000 0.6460 0.6410 0.6340 0.6170 0.6020
10.810030 0.5900 0.5890 0.5870 0.5850 0.5800
10.844000 0.5720 0.5700 0.5600 0.5530 0.5500
10.878030 0.5440 0.5390 0.5310 0.5280 0.5240
10.912000 0.5190 0.5160 0.5140 0.5110 0.5070
10.946030 0.5020 0.4970 0.4870 0.4850 0.4830
10.980000 0.4820 0.4770 0.4710 0.4660 0.4600
11.014030 0.4560 0.4530 0.4510 0.4480 0.4480
11.048000 0.4380 0.4290 0.4240 0.4190 0.4140
11.082030 0.4090 0.4040 0.3980 0.3920 0.3870
11.116000 0.3800 0.3760 0.3710 0.3630 0.3560
11.150030 0.3490 0.3440 0.3420 0.3410 0.3390
11.184000 0.3370 0.3360 0.3290 0.3190 0.3100
11.218030 0.3080 0.3030 0.3020 0.3000 0.2980
11.252000 0.2970 0.2950 0.2930 0.2900 0.2850
11.286030 0.2780 0.2730 0.2710 0.2690 0.2680
11.320000 0.2680 0.2660 0.2640 0.2630 0.2590
11.354030 0.2580 0.2540 0.2520 0.2510 0.2490
11.388000 0.2490 0.2460 0.2420 0.2410 0.2410
11.422030 0.2390 0.2370 0.2340 0.2340 0.2320
11.456000 0.2290 0.2270 0.2240 0.2220 0.2220
11.490030 0.2190 0.2170 0.2150 0.2150 0.2150
11.524000 0.2150 0.2130 0.2100 0.2080 0.2070
11.558030 0.2050 0.2050 0.2050 0.2030 0.2030
11.592000 0.2020 0.2020 0.1980 0.1960 0.1950
11.626030 0.1930 0.1930 0.1930 0.1930 0.1930
11.660000 0.1930 0.1930 0.1930 0.1930 0.1930
11.694030 0.1910 0.1910 0.1900 0.1880 0.1880
11.728000 0.1880 0.1860 0.1860 0.1860 0.1850
11.762030 0.1830 0.1830 0.1810 0.1810 0.1810
11.796000 0.1810 0.1810 0.1810 0.1810 0.1810
11.830030 0.1810 0.1810 0.1810 0.1810 0.1810
11.864000 0.1810 0.1830 0.1830 0.1850 0.1860
11.898030 0.1860 0.1880 0.1910 0.1910 0.1930
11.932000 0.1930 0.1930 0.1930 0.1930 0.1930
11.966030 0.1930 0.1930 0.1950 0.1930 0.1930
12.000000 0.1910 0.1910 0.1900 0.1900 0.1900
12.034030 0.1900 0.1900 0.1910 0.1980 0.2000
12.068000 0.2000 0.2020 0.2030 0.2030 0.2050
12.102030 0.2050 0.2070 0.2070 0.2080 0.2080
12.136000 0.2080 0.2100 0.2120 0.2130 0.2150
12.170030 0.2170 0.2170 0.2190 0.2220 0.2270
12.204000 0.2320 0.2370 0.2370 0.2390 0.2410
12.238030 0.2420 0.2470 0.2510 0.2540 0.2540
12.272000 0.2590 0.2630 0.2660 0.2690 0.2710
12.306030 0.2730 0.2730 0.2760 0.2780 0.2800
12.340000 0.2830 0.2860 0.2880 0.2980 0.3020
12.374030 0.3100 0.3150 0.3200 0.3240 0.3310
12.408000 0.3370 0.3440 0.3480 0.3530 0.3560
12.442030 0.3590 0.3610 0.3680 0.3760 0.3820
12.476000 0.3870 0.3900 0.3980 0.4020 0.4040
12.510030 0.4100 0.4120 0.4140 0.4170 0.4220
12.544000 0.4290 0.4340 0.4360 0.4380 0.4410
12.578030 0.4480 0.4480 0.4510 0.4560 0.4610
12.612000 0.4650 0.4680 0.4710 0.4730 0.4800
12.646030 0.4850 0.4900 0.4970 0.5020 0.5090
12.680000 0.5020 0.5110 0.5110 0.5160 0.5210
12.714030 0.5280 0.5310 0.5380 0.5430 0.5430
12.748000 0.5440 0.5480 0.5530 0.5600 0.5700
12.782030 0.5720 0.5720 0.5730 0.5730 0.5770
12.816000 0.5800 0.5850 0.5890 0.5900 0.5920
12.850030 0.5950 0.5970 0.5990 0.5990 0.6020
12.884000 0.6060 0.6090 0.6110 0.6120 0.6120
12.918030 0.6120 0.6190 0.6210 0.6260 0.6280
12.952000 0.6280 0.6290 0.6310 0.6330 0.6310
12.986030 0.6330 0.6360 0.6400 0.6410 0.6430
13.020000 0.6450 0.6460 0.6460 0.6480 0.6500
13.054030 0.6510 0.6500 0.6510 0.6510 0.6530
13.088000 0.6550 0.6570 0.6570 0.6570 0.6580
13.122030 0.6600 0.6620 0.6630 0.6630 0.6630
13.156000 0.6630 0.6630 0.6630 0.6650 0.6650
13.190030 0.6670 0.6680 0.6680 0.6680 0.6680
13.224000 0.6680 0.6680 0.6680 0.6680 0.6680
13.258030 0.6680 0.6680 0.6650 0.6630 0.6630
13.293000 0.6620 0.6620 0.6600 0.6580 0.6550
13.327030 0.6500 0.6480 0.6360 0.6310 0.6260
13.361000 0.6160 0.6020 0.5990 0.5870 0.5820
13.395030 0.5610 0.5500 0.5290 0.5110 0.4990
13.429000 0.4870 0.4820 0.4780 0.4770 0.4780
13.463030 0.4800 0.4880 0.5020 0.5160 0.5290
13.497000 0.5430 0.5510 0.5650 0.5800 0.5890
13.531030 0.6010 0.6070 0.6170 0.6230 0.6280
13.565000 0.6360 0.6410 0.6480 0.6530 0.6570
13.599030 0.6600 0.6670 0.6720 0.6770 0.6790
13.633000 0.6840 0.6850 0.6850 0.6890 0.6910
13.667030 0.6920 0.6940 0.6970 0.6990 0.7020
13.701000 0.7020 0.7040 0.7040 0.7060 0.7060
13.735030 0.7070 0.7070 0.7110 0.7110 0.7110
13.769000 0.7130 0.7130 0.7130 0.7160 0.7180
13.803030 0.7190 0.7190 0.7190 0.7210 0.7210
13.837000 0.7190 0.7190 0.7190 0.7190 0.7210
13.871030 0.7210 0.7230 0.7230 0.7240 0.7260
13.905000 0.7260 0.7260 0.7260 0.7260 0.7260
13.939030 0.7260 0.7280 0.7260 0.7260 0.7260
13.973000 0.7260 0.7280 0.7280 0.7300 0.7300
14.007030 0.7300 0.7310 0.7310 0.7310 0.7310
14.041000 0.7310 0.7300 0.7300 0.7280 0.7280
14.075030 0.7280 0.7280 0.7280 0.7300 0.7300
14.109000 0.7330 0.7330 0.7310 0.7310 0.7310
14.143030 0.7310 0.7310 0.7300 0.7300 0.7300
14.177000 0.7280 0.7300 0.7300 0.7300 0.7310
14.211030 0.7330 0.7310 0.7310 0.7310 0.7310
14.245000 0.7310 0.7350 0.7350 0.7360 0.7360
14.279030 0.7360 0.7360 0.7360 0.7360 0.7360
14.313000 0.7360 0.7360 0.7360 0.7360 0.7360
14.347030 0.7360 0.7360 0.7380 0.7380 0.7380
14.381000 0.7380 0.7360 0.7360 0.7380 0.7380
14.415030 0.7380 0.7380 0.7380 0.7400 0.7410
14.449000 0.7400 0.7400 0.7380 0.7380 0.7380
14.483030 0.7360 0.7350 0.7350 0.7360 0.7380
14.517000 0.7380 0.7380 0.7380 0.7400 0.7400
14.551030 0.7400 0.7400 0.7400 0.7400 0.7400
14.585000 0.7400 0.7400 0.7360 0.7380 0.7380
14.619030 0.7380 0.7380 0.7380 0.7380 0.7380
14.653000 0.7380 0.7360 0.7360 0.7360 0.7350
14.687030 0.7350 0.7360 0.7380 0.7380 0.7380
14.721000 0.7360 0.7360 0.7360 0.7360 0.7360
14.755030 0.7360 0.7360 0.7350 0.7350 0.7350
14.789000 0.7350 0.7400 0.7400 0.7380 0.7360
14.823030 0.7330 0.7310 0.7300 0.7300 0.7280
14.857000 0.7300 0.7300 0.7310 0.7310 0.7330
14.891030 0.7330 0.7330 0.7330 0.7330 0.7330
14.925000 0.7330 0.7330 0.7310 0.7310 0.7310
14.959030 0.7310 0.7300 0.7260 0.7260 0.7240
14.993000 0.7210 0.7180 0.7160 0.7140 0.7140
15.027030 0.7140 0.7130 0.7130 0.7130 0.7130
15.061000 0.7130 0.7130 0.7140 0.7160 0.7180
15.095030 0.7190 0.7210 0.7230 0.7230 0.7230
15.129000 0.7240 0.7230 0.7230 0.7230 0.7240
15.163030 0.7230 0.7230 0.7210 0.7210 0.7230
15.197000 0.7230 0.7230 0.7230 0.7230 0.7230
15.231030 0.7190 0.7180 0.7160 0.7140 0.7130
15.265000 0.7130 0.7130 0.7140 0.7140 0.7140
15.299030 0.7140 0.7140 0.7130 0.7130 0.7130
15.333000 0.7110 0.7090 0.7090 0.7070 0.7060
15.367030 0.7060 0.7060 0.7060 0.7060 0.7060
15.401000 0.7060 0.7060 0.7060 0.7060 0.7070
15.435030 0.7060 0.7060 0.7060 0.7060 0.7060
15.469000 0.7020 0.7020 0.7040 0.7040 0.7060
15.503030 0.7040 0.7040 0.7020 0.7020 0.7020
15.537000 0.7020 0.7020 0.7020 0.7020 0.7020
15.571030 0.7010 0.7010 0.7020 0.7020 0.7010
15.605000 0.6990 0.6960 0.6940 0.6920 0.6910
15.639030 0.6890 0.6890 0.6910 0.6910 0.6910
15.673000 0.6910 0.6890 0.6890 0.6870 0.6870
15.707030 0.6850 0.6850 0.6850 0.6850 0.6850
15.741000 0.6850 0.6850 0.6850 0.6850 0.6850
15.775030 0.6850 0.6840 0.6820 0.6820 0.6820
15.810000 0.6820 0.6820 0.6820 0.6820 0.6820
15.844030 0.6820 0.6820 0.6800 0.6800 0.6790
15.878000 0.6790 0.6800 0.6800 0.6800 0.6800
15.912030 0.6800 0.6790 0.6790 0.6790 0.6770
15.946000 0.6770 0.6750 0.6740 0.6720 0.6700
15.980030 0.6700 0.6680 0.6680
##END=
