##TITLE=2-METHYL-2-BUTANOL
##JCAMP-DX=4.24
##DATA TYPE=INFRARED SPECTRUM
##CLASS=COBLENTZ
##OWNER=COBLENTZ SOCIETY
Collection (C) 2018 copyright by the U.S. Secretary of Commerce
on behalf of the United States of America. All rights reserved.
##DATE=1963/02/20
##NAMES=AMYLENE HYDRATE
##CAS REGISTRY NO=75-85-4
##MOLFORM=C5 H12 O
##MP=-12 C
##BP=102 C
##SOURCE REFERENCE=COBLENTZ NO. 6987
##$NIST SOURCE=COBLENTZ
##$NIST IMAGE=cob6987
##SPECTROMETER/DATA SYSTEM=PERKIN-ELMER 21 (GRATING)
##STATE=GAS (VAPOR)
##PATH LENGTH=10 CM
##SAMPLING PROCEDURE=TRANSMISSION
##RESOLUTION=4
##DATA PROCESSING=DIGITIZED BY NIST FROM HARD COPY
##XUNITS=MICROMETERS
##YUNITS=TRANSMITTANCE
##XFACTOR=1.000000
##YFACTOR=1
##DELTAX=000.004751
##FIRSTX=2.002
##LASTX=15.0043
##FIRSTY=0.753
##MAXX=15.0043
##MINX=2.002
##MAXY=0.847
##MINY=0.097
##NPOINTS=2738
##XYDATA=(X++(Y..Y))
2.002000 0.7530 0.7530 0.7530 0.7530 0.7530
2.025762 0.7530 0.7530 0.7530 0.7540 0.7540
2.050000 0.7550 0.7550 0.7550 0.7550 0.7550
2.073762 0.7550 0.7550 0.7550 0.7550 0.7550
2.097000 0.7550 0.7550 0.7550 0.7550 0.7550
2.120762 0.7550 0.7550 0.7550 0.7570 0.7580
2.145000 0.7580 0.7590 0.7600 0.7630 0.7640
2.168762 0.7640 0.7640 0.7650 0.7660 0.7660
2.192000 0.7660 0.7660 0.7660 0.7660 0.7670
2.215762 0.7670 0.7670 0.7670 0.7670 0.7690
2.240000 0.7690 0.7690 0.7700 0.7700 0.7700
2.263762 0.7710 0.7700 0.7700 0.7690 0.7690
2.287000 0.7700 0.7700 0.7700 0.7700 0.7690
2.310762 0.7670 0.7670 0.7660 0.7660 0.7650
2.335000 0.7650 0.7640 0.7600 0.7580 0.7550
2.358762 0.7540 0.7520 0.7520 0.7540 0.7550
2.382000 0.7570 0.7580 0.7600 0.7630 0.7650
2.405762 0.7660 0.7670 0.7690 0.7690 0.7690
2.430000 0.7690 0.7670 0.7670 0.7670 0.7670
2.453762 0.7690 0.7690 0.7690 0.7690 0.7690
2.477000 0.7690 0.7690 0.7670 0.7670 0.7670
2.500762 0.7690 0.7690 0.7700 0.7700 0.7710
2.525000 0.7710 0.7710 0.7710 0.7720 0.7730
2.548762 0.7730 0.7750 0.7760 0.7760 0.7780
2.572000 0.7780 0.7790 0.7790 0.7790 0.7790
2.595762 0.7800 0.7800 0.7800 0.7800 0.7800
2.620000 0.7800 0.7800 0.7800 0.7800 0.7800
2.643762 0.7800 0.7800 0.7820 0.7830 0.7830
2.667000 0.7830 0.7830 0.7830 0.7830 0.7830
2.690762 0.7840 0.7860 0.7880 0.7890 0.7900
2.715000 0.7910 0.7910 0.7910 0.7900 0.7840
2.738762 0.7770 0.7690 0.6890 0.6750 0.6600
2.762000 0.6580 0.6600 0.6730 0.6850 0.6970
2.785762 0.7270 0.7470 0.7540 0.7610 0.7700
2.810000 0.7750 0.7760 0.7770 0.7780 0.7780
2.833762 0.7800 0.7820 0.7820 0.7830 0.7830
2.857000 0.7830 0.7830 0.7820 0.7820 0.7820
2.880762 0.7820 0.7820 0.7800 0.7800 0.7820
2.905000 0.7820 0.7820 0.7820 0.7800 0.7800
2.928762 0.7820 0.7820 0.7820 0.7820 0.7820
2.952000 0.7820 0.7830 0.7840 0.7860 0.7880
2.975762 0.7900 0.7900 0.7900 0.7900 0.7910
3.000000 0.7910 0.7900 0.7900 0.7890 0.7900
3.023762 0.7900 0.7900 0.7910 0.7920 0.7920
3.048000 0.7950 0.7960 0.7970 0.7970 0.7970
3.071762 0.7960 0.7960 0.7960 0.7940 0.7940
3.095000 0.7920 0.7900 0.7860 0.7840 0.7830
3.118762 0.7820 0.7800 0.7790 0.7790 0.7790
3.143000 0.7790 0.7790 0.7790 0.7790 0.7790
3.166762 0.7800 0.7820 0.7830 0.7830 0.7830
3.190000 0.7840 0.7850 0.7860 0.7900 0.7900
3.213762 0.7910 0.7910 0.7910 0.7900 0.7900
3.238000 0.7890 0.7880 0.7860 0.7850 0.7850
3.261762 0.7840 0.7840 0.7830 0.7830 0.7830
3.285000 0.7820 0.7790 0.7770 0.7710 0.7630
3.308762 0.7510 0.6710 0.6280 0.5780 0.5260
3.333000 0.3750 0.3190 0.2790 0.2500 0.1670
3.356762 0.1420 0.1280 0.1100 0.1010 0.0970
3.380000 0.0970 0.1210 0.1390 0.1630 0.1790
3.403762 0.2020 0.2140 0.2300 0.2410 0.2510
3.428000 0.2630 0.2900 0.3090 0.3220 0.3290
3.451762 0.3320 0.3330 0.3330 0.3300 0.3300
3.475000 0.3320 0.3400 0.3660 0.4030 0.4220
3.498762 0.4630 0.4820 0.5010 0.5380 0.5760
3.523000 0.6130 0.6500 0.6610 0.6780 0.6890
3.546762 0.7000 0.7040 0.7110 0.7210 0.7260
3.570000 0.7320 0.7400 0.7470 0.7500 0.7510
3.593762 0.7530 0.7580 0.7640 0.7670 0.7700
3.618000 0.7710 0.7720 0.7750 0.7760 0.7760
3.641762 0.7760 0.7760 0.7760 0.7760 0.7760
3.665000 0.7760 0.7760 0.7760 0.7770 0.7790
3.688762 0.7820 0.7840 0.7850 0.7880 0.7890
3.713000 0.7900 0.7910 0.7910 0.7920 0.7910
3.736762 0.7910 0.7910 0.7900 0.7900 0.7900
3.760000 0.7900 0.7900 0.7900 0.7900 0.7900
3.783762 0.7900 0.7900 0.7900 0.7900 0.7910
3.808000 0.7920 0.7950 0.7970 0.7970 0.7980
3.831762 0.8000 0.8010 0.8010 0.8020 0.8030
3.855000 0.8030 0.8040 0.8040 0.8040 0.8040
3.878762 0.8050 0.8050 0.8070 0.8080 0.8080
3.903000 0.8090 0.8090 0.8100 0.8100 0.8100
3.926762 0.8100 0.8110 0.8110 0.8130 0.8140
3.950000 0.8140 0.8140 0.8150 0.8150 0.8150
3.973762 0.8150 0.8160 0.8170 0.8170 0.8190
3.998000 0.8190 0.8190 0.8190 0.8170 0.8170
4.021762 0.8160 0.8160 0.8160 0.8160 0.8160
4.045000 0.8160 0.8170 0.8170 0.8190 0.8190
4.068762 0.8190 0.8190 0.8190 0.8170 0.8170
4.093000 0.8170 0.8170 0.8170 0.8170 0.8170
4.116762 0.8190 0.8190 0.8190 0.8200 0.8200
4.140000 0.8210 0.8210 0.8220 0.8220 0.8220
4.163762 0.8210 0.8210 0.8200 0.8200 0.8190
4.188000 0.8170 0.8150 0.8150 0.8170 0.8200
4.211762 0.8230 0.8260 0.8280 0.8300 0.8320
4.235000 0.8340 0.8340 0.8350 0.8350 0.8360
4.258762 0.8390 0.8390 0.8400 0.8410 0.8420
4.283000 0.8440 0.8450 0.8460 0.8460 0.8470
4.306762 0.8470 0.8470 0.8470 0.8460 0.8410
4.330000 0.8360 0.8350 0.8320 0.8300 0.8290
4.353762 0.8280 0.8280 0.8280 0.8270 0.8270
4.378000 0.8270 0.8260 0.8250 0.8250 0.8230
4.401762 0.8230 0.8220 0.8210 0.8210 0.8210
4.425000 0.8220 0.8230 0.8230 0.8230 0.8230
4.448762 0.8230 0.8230 0.8250 0.8250 0.8260
4.473000 0.8270 0.8270 0.8270 0.8280 0.8280
4.496762 0.8290 0.8290 0.8290 0.8290 0.8280
4.520000 0.8280 0.8270 0.8270 0.8260 0.8260
4.543762 0.8260 0.8260 0.8260 0.8260 0.8260
4.568000 0.8260 0.8260 0.8260 0.8260 0.8250
4.591762 0.8250 0.8260 0.8260 0.8260 0.8260
4.615000 0.8270 0.8270 0.8270 0.8260 0.8260
4.638762 0.8260 0.8260 0.8260 0.8260 0.8260
4.663000 0.8260 0.8260 0.8270 0.8270 0.8270
4.686762 0.8270 0.8270 0.8270 0.8280 0.8280
4.710000 0.8270 0.8270 0.8270 0.8260 0.8260
4.733762 0.8260 0.8270 0.8270 0.8270 0.8270
4.758000 0.8270 0.8260 0.8260 0.8260 0.8260
4.781762 0.8270 0.8270 0.8270 0.8280 0.8280
4.805000 0.8280 0.8280 0.8270 0.8270 0.8270
4.828762 0.8270 0.8280 0.8290 0.8290 0.8290
4.853000 0.8290 0.8290 0.8290 0.8290 0.8290
4.876762 0.8290 0.8290 0.8290 0.8290 0.8290
4.900000 0.8290 0.8290 0.8290 0.8290 0.8290
4.923762 0.8290 0.8280 0.8280 0.8280 0.8280
4.948000 0.8280 0.8280 0.8280 0.8280 0.8280
4.971762 0.8290 0.8300 0.8320 0.8320 0.8320
4.995000 0.8320 0.8320 0.8320 0.8300 0.8300
5.018762 0.8300 0.8300 0.8300 0.8300 0.8300
5.043000 0.8300 0.8300 0.8300 0.8300 0.8320
5.066762 0.8320 0.8330 0.8330 0.8330 0.8330
5.090000 0.8330 0.8340 0.8340 0.8340 0.8340
5.113762 0.8340 0.8330 0.8330 0.8320 0.8320
5.138000 0.8300 0.8300 0.8300 0.8300 0.8300
5.161762 0.8300 0.8300 0.8300 0.8300 0.8300
5.185000 0.8300 0.8300 0.8300 0.8300 0.8290
5.208762 0.8290 0.8290 0.8290 0.8290 0.8290
5.233000 0.8290 0.8290 0.8290 0.8290 0.8280
5.256762 0.8280 0.8280 0.8270 0.8270 0.8270
5.280000 0.8270 0.8270 0.8270 0.8270 0.8270
5.303762 0.8270 0.8270 0.8270 0.8270 0.8270
5.328000 0.8270 0.8270 0.8280 0.8280 0.8290
5.351762 0.8290 0.8290 0.8290 0.8290 0.8300
5.375000 0.8300 0.8300 0.8300 0.8300 0.8300
5.398762 0.8300 0.8300 0.8300 0.8290 0.8290
5.423000 0.8280 0.8280 0.8290 0.8300 0.8300
5.446762 0.8300 0.8300 0.8300 0.8300 0.8300
5.470000 0.8300 0.8290 0.8290 0.8290 0.8290
5.493762 0.8280 0.8280 0.8280 0.8280 0.8280
5.518000 0.8280 0.8280 0.8280 0.8280 0.8270
5.541762 0.8270 0.8270 0.8270 0.8270 0.8270
5.565000 0.8280 0.8280 0.8290 0.8300 0.8300
5.588762 0.8300 0.8290 0.8280 0.8260 0.8250
5.613000 0.8250 0.8230 0.8220 0.8210 0.8200
5.636762 0.8200 0.8190 0.8170 0.8160 0.8150
5.660000 0.8140 0.8130 0.8100 0.8100 0.8090
5.683762 0.8090 0.8090 0.8090 0.8100 0.8100
5.708000 0.8110 0.8130 0.8140 0.8140 0.8150
5.731762 0.8160 0.8160 0.8170 0.8170 0.8170
5.755000 0.8190 0.8190 0.8190 0.8190 0.8190
5.778762 0.8190 0.8190 0.8170 0.8170 0.8170
5.803000 0.8170 0.8190 0.8200 0.8220 0.8230
5.826762 0.8230 0.8250 0.8250 0.8250 0.8250
5.850000 0.8250 0.8260 0.8260 0.8270 0.8290
5.873762 0.8300 0.8300 0.8320 0.8320 0.8320
5.898000 0.8300 0.8290 0.8280 0.8280 0.8290
5.921762 0.8290 0.8290 0.8300 0.8300 0.8300
5.945000 0.8300 0.8290 0.8290 0.8290 0.8290
5.968762 0.8280 0.8280 0.8280 0.8280 0.8280
5.993000 0.8270 0.8270 0.8260 0.8250 0.8250
6.016762 0.8230 0.8230 0.8230 0.8250 0.8260
6.040000 0.8270 0.8270 0.8280 0.8290 0.8290
6.063762 0.8290 0.8300 0.8290 0.8290 0.8280
6.088000 0.8280 0.8280 0.8280 0.8280 0.8280
6.111762 0.8280 0.8280 0.8270 0.8270 0.8270
6.135000 0.8260 0.8260 0.8260 0.8260 0.8270
6.158762 0.8270 0.8270 0.8270 0.8280 0.8290
6.183000 0.8290 0.8290 0.8290 0.8290 0.8280
6.206762 0.8280 0.8280 0.8280 0.8280 0.8280
6.230000 0.8270 0.8270 0.8270 0.8280 0.8270
6.253762 0.8260 0.8250 0.8230 0.8230 0.8230
6.278000 0.8230 0.8230 0.8230 0.8250 0.8250
6.301762 0.8230 0.8220 0.8210 0.8210 0.8210
6.325000 0.8210 0.8210 0.8210 0.8220 0.8230
6.348762 0.8250 0.8260 0.8270 0.8270 0.8280
6.373000 0.8280 0.8290 0.8290 0.8290 0.8290
6.396762 0.8290 0.8290 0.8290 0.8300 0.8300
6.420000 0.8300 0.8300 0.8290 0.8280 0.8280
6.443762 0.8280 0.8280 0.8280 0.8280 0.8290
6.468000 0.8300 0.8330 0.8340 0.8360 0.8360
6.491762 0.8380 0.8380 0.8360 0.8360 0.8350
6.515000 0.8340 0.8340 0.8330 0.8320 0.8320
6.538762 0.8300 0.8300 0.8300 0.8300 0.8300
6.563000 0.8300 0.8300 0.8300 0.8290 0.8290
6.586762 0.8280 0.8280 0.8270 0.8260 0.8250
6.610000 0.8220 0.8210 0.8210 0.8210 0.8210
6.633762 0.8170 0.8080 0.8020 0.7980 0.7940
6.658000 0.7900 0.7860 0.7820 0.7760 0.7690
6.681762 0.7610 0.7520 0.7390 0.7320 0.7200
6.705000 0.7080 0.7020 0.6900 0.6770 0.6700
6.728762 0.6600 0.6590 0.6520 0.6320 0.6220
6.753000 0.6160 0.6110 0.6030 0.5910 0.5830
6.776762 0.5780 0.5700 0.5640 0.5600 0.5550
6.800000 0.5530 0.5530 0.5530 0.5530 0.5520
6.823762 0.5510 0.5480 0.5470 0.5450 0.5440
6.848000 0.5450 0.5480 0.5550 0.5690 0.5790
6.871762 0.5900 0.6020 0.6110 0.6200 0.6230
6.895000 0.6320 0.6420 0.6580 0.6650 0.6690
6.918762 0.6730 0.6790 0.6830 0.6900 0.6940
6.943000 0.7010 0.7020 0.7040 0.7110 0.7160
6.966762 0.7190 0.7210 0.7260 0.7280 0.7300
6.990000 0.7320 0.7340 0.7340 0.7340 0.7340
7.013762 0.7340 0.7340 0.7340 0.7330 0.7320
7.038000 0.7300 0.7280 0.7190 0.7130 0.7050
7.061762 0.6970 0.6900 0.6830 0.6770 0.6700
7.086000 0.6600 0.6510 0.6330 0.6220 0.6140
7.109762 0.6020 0.5830 0.5690 0.5590 0.5460
7.133000 0.5300 0.5170 0.5020 0.4580 0.4420
7.156762 0.4300 0.4200 0.4030 0.3910 0.3830
7.181000 0.3730 0.3650 0.3520 0.3470 0.3390
7.204762 0.3300 0.3260 0.3210 0.3150 0.3110
7.228000 0.3100 0.3090 0.3090 0.3090 0.3100
7.251762 0.3130 0.3140 0.3190 0.3220 0.3270
7.276000 0.3350 0.3450 0.3510 0.3610 0.3790
7.299762 0.3920 0.4080 0.4220 0.4300 0.4400
7.323000 0.4510 0.4610 0.4700 0.4790 0.4890
7.346762 0.4970 0.5040 0.5130 0.5190 0.5220
7.371000 0.5320 0.5410 0.5510 0.5530 0.5590
7.394762 0.5690 0.5780 0.5820 0.5840 0.5910
7.418000 0.5950 0.6010 0.6020 0.6040 0.6100
7.441762 0.6130 0.6170 0.6210 0.6220 0.6230
7.466000 0.6260 0.6270 0.6270 0.6280 0.6280
7.489762 0.6290 0.6300 0.6320 0.6320 0.6330
7.513000 0.6340 0.6360 0.6380 0.6390 0.6410
7.536762 0.6440 0.6450 0.6480 0.6510 0.6520
7.561000 0.6520 0.6520 0.6530 0.6540 0.6590
7.584762 0.6600 0.6630 0.6650 0.6670 0.6690
7.608000 0.6700 0.6710 0.6720 0.6750 0.6750
7.631762 0.6760 0.6760 0.6770 0.6780 0.6790
7.656000 0.6800 0.6800 0.6800 0.6800 0.6800
7.679762 0.6800 0.6800 0.6800 0.6820 0.6820
7.703000 0.6820 0.6820 0.6820 0.6820 0.6820
7.726762 0.6820 0.6820 0.6820 0.6830 0.6820
7.751000 0.6820 0.6820 0.6800 0.6790 0.6790
7.774762 0.6770 0.6760 0.6750 0.6720 0.6700
7.798000 0.6670 0.6650 0.6630 0.6590 0.6540
7.821762 0.6530 0.6520 0.6510 0.6420 0.6400
7.846000 0.6340 0.6290 0.6270 0.6230 0.6160
7.869762 0.6110 0.6030 0.6010 0.5950 0.5900
7.893000 0.5880 0.5830 0.5770 0.5720 0.5710
7.916762 0.5690 0.5610 0.5590 0.5540 0.5540
7.941000 0.5530 0.5530 0.5520 0.5520 0.5510
7.964762 0.5500 0.5500 0.5470 0.5440 0.5410
7.988000 0.5380 0.5340 0.5300 0.5290 0.5280
8.011762 0.5270 0.5270 0.5280 0.5290 0.5300
8.036000 0.5330 0.5360 0.5400 0.5420 0.5450
8.059762 0.5480 0.5510 0.5510 0.5510 0.5520
8.083000 0.5530 0.5540 0.5540 0.5570 0.5580
8.106762 0.5590 0.5600 0.5630 0.5660 0.5700
8.131000 0.5710 0.5730 0.5760 0.5770 0.5820
8.154762 0.5860 0.5900 0.5940 0.5960 0.6010
8.178000 0.6020 0.6040 0.6050 0.6090 0.6100
8.201762 0.6130 0.6150 0.6160 0.6170 0.6190
8.226000 0.6200 0.6210 0.6210 0.6210 0.6210
8.249762 0.6190 0.6160 0.6150 0.6130 0.6100
8.273000 0.6090 0.6040 0.6020 0.6010 0.5940
8.296762 0.5890 0.5820 0.5760 0.5730 0.5700
8.321000 0.5650 0.5630 0.5600 0.5530 0.5510
8.344762 0.5440 0.5390 0.5340 0.5320 0.5290
8.368000 0.5230 0.5140 0.5100 0.5030 0.5020
8.391762 0.5010 0.4920 0.4850 0.4840 0.4820
8.416000 0.4800 0.4790 0.4790 0.4790 0.4790
8.439762 0.4780 0.4770 0.4760 0.4750 0.4750
8.463000 0.4730 0.4730 0.4720 0.4710 0.4710
8.486762 0.4690 0.4650 0.4610 0.4610 0.4600
8.511000 0.4590 0.4590 0.4580 0.4570 0.4570
8.534762 0.4570 0.4570 0.4550 0.4540 0.4530
8.558000 0.4530 0.4530 0.4530 0.4520 0.4510
8.581762 0.4480 0.4470 0.4450 0.4420 0.4390
8.606000 0.4360 0.4340 0.4330 0.4320 0.4300
8.629762 0.4270 0.4230 0.4220 0.4200 0.4160
8.653000 0.4110 0.4100 0.4040 0.4020 0.4010
8.676762 0.3960 0.3940 0.3910 0.3880 0.3850
8.701000 0.3840 0.3830 0.3820 0.3790 0.3780
8.724762 0.3770 0.3760 0.3750 0.3750 0.3750
8.748000 0.3730 0.3730 0.3730 0.3730 0.3730
8.771762 0.3730 0.3730 0.3730 0.3730 0.3730
8.796000 0.3750 0.3760 0.3770 0.3790 0.3820
8.819762 0.3840 0.3910 0.3940 0.3960 0.3970
8.843000 0.4000 0.4010 0.4020 0.4030 0.4080
8.866762 0.4130 0.4170 0.4210 0.4250 0.4290
8.891000 0.4360 0.4400 0.4510 0.4580 0.4610
8.914762 0.4660 0.4710 0.4760 0.4840 0.4940
8.938000 0.4980 0.5000 0.5010 0.5070 0.5160
8.961762 0.5190 0.5220 0.5290 0.5380 0.5450
8.986000 0.5520 0.5540 0.5570 0.5670 0.5730
9.009762 0.5860 0.5890 0.5900 0.5940 0.5950
9.033000 0.5980 0.6020 0.6030 0.6100 0.6170
9.056762 0.6200 0.6200 0.6200 0.6200 0.6200
9.081000 0.6210 0.6210 0.6200 0.6190 0.6170
9.104762 0.6170 0.6170 0.6160 0.6130 0.6100
9.128000 0.6080 0.6040 0.6030 0.6010 0.5980
9.151762 0.5950 0.5880 0.5840 0.5790 0.5770
9.176000 0.5750 0.5710 0.5690 0.5660 0.5630
9.199762 0.5600 0.5580 0.5530 0.5520 0.5500
9.223000 0.5470 0.5450 0.5420 0.5410 0.5410
9.246762 0.5400 0.5390 0.5340 0.5300 0.5300
9.271000 0.5290 0.5280 0.5250 0.5210 0.5170
9.294762 0.5150 0.5140 0.5110 0.5090 0.5030
9.318000 0.5030 0.5020 0.5010 0.5010 0.4950
9.341762 0.4940 0.4920 0.4910 0.4900 0.4890
9.366000 0.4890 0.4890 0.4890 0.4890 0.4900
9.389762 0.4910 0.4920 0.4940 0.4950 0.4960
9.413000 0.4960 0.4970 0.4980 0.4980 0.4980
9.436762 0.4980 0.5000 0.5000 0.5000 0.5010
9.461000 0.5010 0.5020 0.5030 0.5030 0.5040
9.484762 0.5080 0.5090 0.5130 0.5160 0.5200
9.508000 0.5220 0.5270 0.5300 0.5340 0.5360
9.531762 0.5400 0.5460 0.5500 0.5530 0.5540
9.556000 0.5610 0.5640 0.5700 0.5730 0.5780
9.579762 0.5790 0.5820 0.5880 0.5920 0.5960
9.603000 0.6020 0.6040 0.6110 0.6160 0.6200
9.626762 0.6260 0.6300 0.6330 0.6340 0.6360
9.651000 0.6400 0.6440 0.6460 0.6480 0.6510
9.674762 0.6540 0.6600 0.6640 0.6670 0.6700
9.698000 0.6730 0.6750 0.6760 0.6770 0.6800
9.721762 0.6830 0.6860 0.6890 0.6910 0.6920
9.746000 0.6920 0.6950 0.6970 0.7000 0.7010
9.769762 0.7020 0.7020 0.7020 0.7030 0.7030
9.793000 0.7030 0.7040 0.7040 0.7080 0.7080
9.816762 0.7090 0.7090 0.7090 0.7100 0.7100
9.841000 0.7110 0.7140 0.7160 0.7170 0.7190
9.864762 0.7190 0.7200 0.7200 0.7210 0.7210
9.888000 0.7210 0.7210 0.7220 0.7220 0.7230
9.911762 0.7230 0.7230 0.7230 0.7230 0.7250
9.936000 0.7260 0.7260 0.7270 0.7270 0.7270
9.959762 0.7280 0.7280 0.7280 0.7280 0.7280
9.983000 0.7280 0.7290 0.7290 0.7300 0.7300
10.006762 0.7300 0.7300 0.7300 0.7300 0.7300
10.031000 0.7300 0.7320 0.7320 0.7340 0.7350
10.054762 0.7380 0.7390 0.7410 0.7440 0.7450
10.078000 0.7460 0.7460 0.7470 0.7470 0.7480
10.101762 0.7480 0.7480 0.7500 0.7500 0.7500
10.126000 0.7500 0.7500 0.7510 0.7510 0.7510
10.149762 0.7500 0.7500 0.7500 0.7470 0.7460
10.173000 0.7450 0.7420 0.7410 0.7410 0.7400
10.196762 0.7380 0.7320 0.7290 0.7280 0.7250
10.221000 0.7190 0.7140 0.7110 0.7050 0.7020
10.244762 0.6970 0.6920 0.6760 0.6690 0.6630
10.268000 0.6540 0.6450 0.6380 0.6300 0.6230
10.291762 0.6140 0.6080 0.6020 0.6010 0.5920
10.316000 0.5890 0.5830 0.5750 0.5660 0.5600
10.339762 0.5540 0.5540 0.5530 0.5520 0.5470
10.363000 0.5420 0.5410 0.5390 0.5380 0.5350
10.386762 0.5330 0.5300 0.5290 0.5280 0.5270
10.411000 0.5260 0.5230 0.5190 0.5140 0.5090
10.434762 0.5020 0.4830 0.4770 0.4690 0.4590
10.458000 0.4520 0.4470 0.4400 0.4350 0.4320
10.481762 0.4290 0.4270 0.4220 0.4190 0.4130
10.506000 0.4080 0.4040 0.4030 0.4030 0.4030
10.529762 0.4030 0.4030 0.4030 0.4030 0.4030
10.553000 0.4030 0.4030 0.4030 0.4030 0.4030
10.576762 0.4020 0.4020 0.4010 0.3920 0.3860
10.601000 0.3830 0.3790 0.3780 0.3750 0.3710
10.624762 0.3700 0.3690 0.3660 0.3650 0.3650
10.648000 0.3650 0.3660 0.3700 0.3760 0.3800
10.671762 0.3880 0.3910 0.4020 0.4040 0.4130
10.696000 0.4190 0.4260 0.4390 0.4450 0.4510
10.719762 0.4530 0.4630 0.4670 0.4760 0.4780
10.743000 0.4850 0.4900 0.4960 0.5010 0.5050
10.766762 0.5170 0.5290 0.5330 0.5400 0.5500
10.791000 0.5530 0.5600 0.5660 0.5730 0.5840
10.814762 0.5940 0.6020 0.6070 0.6150 0.6250
10.838000 0.6320 0.6390 0.6420 0.6510 0.6580
10.861762 0.6660 0.6720 0.6780 0.6820 0.6910
10.886000 0.6940 0.7010 0.7030 0.7100 0.7140
10.909762 0.7200 0.7260 0.7300 0.7330 0.7360
10.933000 0.7440 0.7460 0.7480 0.7500 0.7520
10.956762 0.7530 0.7570 0.7590 0.7600 0.7630
10.981000 0.7660 0.7690 0.7700 0.7710 0.7730
11.004762 0.7750 0.7760 0.7770 0.7780 0.7790
11.029000 0.7790 0.7800 0.7800 0.7800 0.7800
11.052762 0.7800 0.7800 0.7800 0.7820 0.7820
11.076000 0.7820 0.7820 0.7820 0.7800 0.7800
11.099762 0.7790 0.7790 0.7780 0.7760 0.7750
11.124000 0.7730 0.7720 0.7710 0.7670 0.7640
11.147762 0.7590 0.7530 0.7530 0.7510 0.7420
11.171000 0.7400 0.7390 0.7360 0.7330 0.7290
11.194762 0.7260 0.7210 0.7190 0.7160 0.7150
11.219000 0.7150 0.7140 0.7140 0.7130 0.7130
11.242762 0.7110 0.7110 0.7110 0.7100 0.7100
11.266000 0.7090 0.7070 0.7050 0.7030 0.7030
11.289762 0.7000 0.6980 0.6970 0.6960 0.6900
11.314000 0.6850 0.6800 0.6770 0.6750 0.6720
11.337762 0.6710 0.6700 0.6690 0.6690 0.6660
11.361000 0.6660 0.6650 0.6650 0.6660 0.6660
11.384762 0.6690 0.6700 0.6720 0.6750 0.6770
11.409000 0.6800 0.6820 0.6830 0.6850 0.6880
11.432762 0.6900 0.6910 0.6960 0.7010 0.7020
11.456000 0.7020 0.7040 0.7100 0.7110 0.7140
11.479762 0.7160 0.7190 0.7200 0.7210 0.7220
11.504000 0.7260 0.7290 0.7320 0.7360 0.7390
11.527762 0.7400 0.7420 0.7440 0.7460 0.7480
11.551000 0.7500 0.7510 0.7540 0.7590 0.7610
11.574762 0.7630 0.7670 0.7700 0.7710 0.7710
11.599000 0.7730 0.7760 0.7770 0.7780 0.7800
11.622762 0.7800 0.7820 0.7840 0.7880 0.7900
11.646000 0.7910 0.7920 0.7940 0.7960 0.7980
11.669762 0.8010 0.8010 0.8020 0.8020 0.8020
11.694000 0.8030 0.8040 0.8050 0.8050 0.8050
11.717762 0.8070 0.8080 0.8080 0.8080 0.8080
11.741000 0.8090 0.8100 0.8110 0.8110 0.8110
11.764762 0.8140 0.8140 0.8140 0.8140 0.8140
11.789000 0.8140 0.8140 0.8150 0.8150 0.8150
11.812762 0.8160 0.8160 0.8160 0.8150 0.8150
11.836000 0.8150 0.8150 0.8150 0.8160 0.8160
11.859762 0.8150 0.8140 0.8130 0.8130 0.8130
11.884000 0.8110 0.8100 0.8090 0.8080 0.8070
11.907762 0.8070 0.8050 0.8040 0.8040 0.8040
11.931000 0.8040 0.8040 0.8040 0.8040 0.8030
11.954762 0.8020 0.8020 0.8010 0.8010 0.7960
11.979000 0.7950 0.7940 0.7920 0.7910 0.7910
12.002762 0.7900 0.7890 0.7860 0.7850 0.7830
12.026000 0.7830 0.7820 0.7820 0.7820 0.7790
12.049762 0.7770 0.7760 0.7760 0.7750 0.7750
12.074000 0.7750 0.7730 0.7730 0.7730 0.7720
12.097762 0.7710 0.7710 0.7710 0.7710 0.7710
12.121000 0.7720 0.7730 0.7730 0.7750 0.7750
12.144762 0.7750 0.7750 0.7750 0.7750 0.7750
12.169000 0.7750 0.7750 0.7730 0.7730 0.7730
12.192762 0.7730 0.7730 0.7730 0.7730 0.7730
12.216000 0.7720 0.7720 0.7710 0.7710 0.7710
12.239762 0.7710 0.7710 0.7710 0.7710 0.7710
12.264000 0.7710 0.7710 0.7710 0.7710 0.7710
12.287762 0.7710 0.7710 0.7710 0.7710 0.7700
12.311000 0.7700 0.7700 0.7690 0.7690 0.7700
12.334762 0.7710 0.7710 0.7710 0.7710 0.7710
12.359000 0.7710 0.7710 0.7710 0.7710 0.7710
12.382762 0.7710 0.7710 0.7710 0.7710 0.7710
12.406000 0.7710 0.7710 0.7710 0.7710 0.7710
12.429762 0.7710 0.7710 0.7710 0.7710 0.7720
12.454000 0.7720 0.7720 0.7720 0.7730 0.7730
12.477762 0.7750 0.7730 0.7730 0.7730 0.7720
12.501000 0.7720 0.7720 0.7720 0.7730 0.7750
12.524762 0.7750 0.7730 0.7750 0.7750 0.7750
12.549000 0.7750 0.7750 0.7760 0.7760 0.7770
12.572762 0.7770 0.7780 0.7780 0.7790 0.7800
12.596000 0.7820 0.7830 0.7840 0.7850 0.7860
12.619762 0.7880 0.7880 0.7890 0.7890 0.7890
12.644000 0.7910 0.7950 0.7960 0.7970 0.7980
12.667762 0.8000 0.8000 0.8000 0.8000 0.8000
12.691000 0.8000 0.8000 0.8000 0.8010 0.8010
12.714762 0.8010 0.8010 0.8010 0.8010 0.8020
12.739000 0.8020 0.8020 0.8030 0.8030 0.8030
12.762762 0.8040 0.8050 0.8050 0.8040 0.8040
12.786000 0.8050 0.8050 0.8050 0.8050 0.8070
12.809762 0.8070 0.8070 0.8070 0.8070 0.8070
12.834000 0.8070 0.8050 0.8050 0.8050 0.8050
12.857762 0.8050 0.8050 0.8050 0.8050 0.8050
12.881000 0.8050 0.8080 0.8080 0.8080 0.8080
12.904762 0.8080 0.8090 0.8090 0.8090 0.8090
12.929000 0.8100 0.8100 0.8110 0.8110 0.8110
12.952762 0.8100 0.8100 0.8080 0.8080 0.8070
12.976000 0.8070 0.8070 0.8080 0.8080 0.8090
12.999762 0.8090 0.8100 0.8100 0.8100 0.8100
13.024000 0.8100 0.8100 0.8100 0.8100 0.8100
13.047762 0.8100 0.8100 0.8110 0.8110 0.8110
13.071000 0.8130 0.8130 0.8130 0.8130 0.8110
13.094762 0.8100 0.8100 0.8100 0.8100 0.8100
13.119000 0.8100 0.8100 0.8100 0.8100 0.8100
13.142762 0.8100 0.8100 0.8100 0.8090 0.8100
13.166000 0.8100 0.8110 0.8110 0.8110 0.8100
13.189762 0.8090 0.8090 0.8090 0.8090 0.8090
13.214000 0.8090 0.8090 0.8090 0.8090 0.8090
13.237762 0.8080 0.8080 0.8080 0.8080 0.8070
13.261000 0.8070 0.8070 0.8070 0.8070 0.8070
13.284762 0.8050 0.8050 0.8050 0.8050 0.8050
13.309000 0.8050 0.8040 0.8040 0.8040 0.8040
13.332762 0.8040 0.8040 0.8040 0.8040 0.8040
13.356000 0.8040 0.8040 0.8040 0.8040 0.8040
13.379762 0.8040 0.8030 0.8030 0.8030 0.8030
13.404000 0.8020 0.8020 0.8020 0.8020 0.8020
13.427762 0.8010 0.8010 0.8010 0.8010 0.8000
13.451000 0.8000 0.7980 0.7980 0.7970 0.7970
13.474762 0.7970 0.7960 0.7960 0.7960 0.7940
13.499000 0.7940 0.7920 0.7920 0.7910 0.7900
13.522762 0.7890 0.7890 0.7890 0.7890 0.7890
13.546000 0.7890 0.7880 0.7860 0.7860 0.7860
13.569762 0.7850 0.7850 0.7840 0.7830 0.7830
13.594000 0.7820 0.7820 0.7820 0.7820 0.7820
13.617762 0.7820 0.7800 0.7800 0.7790 0.7790
13.641000 0.7780 0.7780 0.7780 0.7780 0.7770
13.664762 0.7770 0.7760 0.7760 0.7760 0.7760
13.689000 0.7760 0.7760 0.7760 0.7770 0.7770
13.712762 0.7760 0.7750 0.7750 0.7730 0.7720
13.736000 0.7710 0.7710 0.7700 0.7700 0.7700
13.759762 0.7700 0.7700 0.7690 0.7670 0.7660
13.784000 0.7660 0.7650 0.7650 0.7640 0.7640
13.807762 0.7640 0.7640 0.7630 0.7610 0.7610
13.831000 0.7600 0.7600 0.7600 0.7600 0.7600
13.854762 0.7600 0.7600 0.7590 0.7590 0.7590
13.879000 0.7580 0.7580 0.7580 0.7580 0.7580
13.902762 0.7580 0.7580 0.7590 0.7590 0.7590
13.926000 0.7600 0.7600 0.7610 0.7610 0.7610
13.949762 0.7630 0.7630 0.7630 0.7630 0.7630
13.974000 0.7610 0.7610 0.7610 0.7610 0.7610
13.997762 0.7610 0.7610 0.7610 0.7610 0.7600
14.021000 0.7590 0.7590 0.7590 0.7590 0.7600
14.044762 0.7600 0.7600 0.7590 0.7580 0.7580
14.069000 0.7580 0.7570 0.7570 0.7570 0.7580
14.092762 0.7580 0.7590 0.7590 0.7590 0.7590
14.116000 0.7590 0.7580 0.7570 0.7570 0.7570
14.139762 0.7570 0.7570 0.7570 0.7570 0.7580
14.164000 0.7580 0.7580 0.7580 0.7580 0.7580
14.187762 0.7580 0.7570 0.7570 0.7570 0.7550
14.211000 0.7550 0.7540 0.7540 0.7540 0.7570
14.234762 0.7570 0.7570 0.7570 0.7570 0.7540
14.259000 0.7540 0.7540 0.7550 0.7550 0.7530
14.282762 0.7530 0.7530 0.7530 0.7530 0.7530
14.306000 0.7530 0.7530 0.7530 0.7530 0.7520
14.329762 0.7520 0.7510 0.7510 0.7510 0.7510
14.354000 0.7510 0.7510 0.7510 0.7510 0.7510
14.377762 0.7510 0.7510 0.7510 0.7510 0.7510
14.401000 0.7510 0.7510 0.7500 0.7500 0.7500
14.424762 0.7500 0.7500 0.7500 0.7480 0.7500
14.449000 0.7500 0.7500 0.7500 0.7500 0.7460
14.472762 0.7460 0.7460 0.7460 0.7460 0.7460
14.496000 0.7460 0.7460 0.7460 0.7450 0.7450
14.519762 0.7440 0.7420 0.7420 0.7410 0.7410
14.544000 0.7410 0.7410 0.7410 0.7410 0.7400
14.567762 0.7400 0.7390 0.7390 0.7390 0.7390
14.591000 0.7390 0.7390 0.7390 0.7390 0.7390
14.614762 0.7380 0.7380 0.7380 0.7380 0.7380
14.639000 0.7380 0.7360 0.7360 0.7360 0.7360
14.662762 0.7350 0.7340 0.7330 0.7330 0.7330
14.686000 0.7330 0.7340 0.7340 0.7340 0.7330
14.709762 0.7320 0.7300 0.7280 0.7280 0.7270
14.734000 0.7270 0.7270 0.7270 0.7270 0.7260
14.757762 0.7250 0.7230 0.7220 0.7220 0.7220
14.781000 0.7220 0.7220 0.7210 0.7210 0.7210
14.804762 0.7210 0.7220 0.7220 0.7220 0.7220
14.829000 0.7220 0.7210 0.7200 0.7190 0.7190
14.852762 0.7170 0.7170 0.7170 0.7160 0.7160
14.876000 0.7150 0.7150 0.7150 0.7140 0.7140
14.899762 0.7130 0.7130 0.7130 0.7130 0.7130
14.924000 0.7110 0.7100 0.7090 0.7090 0.7080
14.947762 0.7070 0.7070 0.7050 0.7050 0.7040
14.971000 0.7040 0.7030 0.7020 0.7030 0.7040
14.994762 0.7070 0.7040 0.7030
##END=
