##TITLE=1-Butene, 3,4-dichloro-
##JCAMP-DX=4.24
##DATA TYPE=INFRARED SPECTRUM
##CLASS=COBLENTZ
##ORIGIN=DOW CHEMICAL COMPANY
##OWNER=Copyright (C) 1987 by the Coblentz Society
Collection (C) 2018 copyright by the U.S. Secretary of Commerce
on behalf of the United States of America. All rights reserved.
##DATE=1964
##NAMES=3,4-dichloro-1-butene
##CAS REGISTRY NO=760-23-6
##MOLFORM=C4 H6 Cl2
##SOURCE REFERENCE=COBLENTZ NO. 8829
##$NIST SOURCE=COBLENTZ
##$NIST IMAGE=cob8829
##SPECTROMETER/DATA SYSTEM=DOW KBr FOREPRISM-GRATING
##INSTRUMENT PARAMETERS=GRATING CHANGED AT 5.0, 7.5, 15.0 MICRON
##STATE=GAS (14 mmHg, N2 ADDED, TOTAL PRESSURE 600 mmHg)
##PATH LENGTH=5 CM
$$ SPECTRAL CONTAMINATION DUE TO ALKANE IMPURITY AROUND 2930, 2955, 1455, AND 1360 CM^-^1
##SAMPLING PROCEDURE=TRANSMISSION
##RESOLUTION=2
##DATA PROCESSING=DIGITIZED BY COBLENTZ SOCIETY (BATCH II) FROM HARD COPY
##XUNITS=1/CM
##YUNITS=TRANSMITTANCE
##XFACTOR=1.0
##YFACTOR=1
##FIRSTX=459
##LASTX=3790
##FIRSTY=0.9074
##MAXX=3790
##MINX=459
##MAXY=0.9302
##MINY=0.4879
##NPOINTS=3332
##XYDATA=(X++(Y..Y))
459.000000 0.9074 0.9086 0.9099 0.9110 0.9120
464.000000 0.9130 0.9140 0.9150 0.9156 0.9162
469.000000 0.9167 0.9173 0.9179 0.9184 0.9190
474.000000 0.9196 0.9201 0.9207 0.9211 0.9213
479.000000 0.9216 0.9218 0.9220 0.9222 0.9224
484.000000 0.9226 0.9228 0.9230 0.9226 0.9221
489.000000 0.9217 0.9213 0.9209 0.9205 0.9199
494.000000 0.9193 0.9186 0.9180 0.9173 0.9167
499.000000 0.9161 0.9154 0.9148 0.9142 0.9136
504.000000 0.9131 0.9125 0.9119 0.9113 0.9107
509.000000 0.9101 0.9095 0.9093 0.9091 0.9088
514.000000 0.9086 0.9084 0.9082 0.9080 0.9078
519.000000 0.9076 0.9080 0.9085 0.9090 0.9094
524.000000 0.9099 0.9104 0.9109 0.9113 0.9118
529.000000 0.9123 0.9128 0.9132 0.9136 0.9141
534.000000 0.9145 0.9149 0.9154 0.9158 0.9163
539.000000 0.9167 0.9171 0.9175 0.9179 0.9183
544.000000 0.9187 0.9190 0.9194 0.9198 0.9173
549.000000 0.9206 0.9210 0.9214 0.9218 0.9221
554.000000 0.9225 0.9229 0.9233 0.9236 0.9240
559.000000 0.9244 0.9247 0.9251 0.9255 0.9259
564.000000 0.9262 0.9266 0.9269 0.9272 0.9275
569.000000 0.9279 0.9282 0.9285 0.9288 0.9291
574.000000 0.9292 0.9293 0.9294 0.9295 0.9296
579.000000 0.9297 0.9297 0.9298 0.9299 0.9300
584.000000 0.9301 0.9302 0.9301 0.9298 0.9296
589.000000 0.9294 0.9292 0.9289 0.9287 0.9285
594.000000 0.9282 0.9280 0.9278 0.9276 0.9273
599.000000 0.9270 0.9266 0.9261 0.9256 0.9252
604.000000 0.9247 0.9242 0.9237 0.9233 0.9228
609.000000 0.9222 0.9213 0.9205 0.9197 0.9189
614.000000 0.9180 0.9172 0.9164 0.9155 0.9147
619.000000 0.9139 0.9130 0.9121 0.9113 0.9104
624.000000 0.9096 0.9087 0.9086 0.9086 0.9086
629.000000 0.9090 0.9094 0.9097 0.9101 0.9105
634.000000 0.9109 0.9115 0.9121 0.9128 0.9132
639.000000 0.9131 0.9129 0.9128 0.9126 0.9124
644.000000 0.9118 0.9113 0.9107 0.9102 0.9096
649.000000 0.9090 0.9085 0.9079 0.9074 0.9070
654.000000 0.9066 0.9062 0.9058 0.9054 0.9050
659.000000 0.9047 0.9042 0.9036 0.9029 0.9023
664.000000 0.9016 0.9010 0.9004 0.8986 0.8961
669.000000 0.8932 0.8899 0.8898 0.8924 0.8950
674.000000 0.8978 0.9000 0.9017 0.9028 0.9033
679.000000 0.9038 0.9040 0.9040 0.9040 0.9037
684.000000 0.9031 0.9024 0.9010 0.8997 0.8986
689.000000 0.8976 0.8965 0.8956 0.8947 0.8939
694.000000 0.8931 0.8923 0.8915 0.8908 0.8901
699.000000 0.8894 0.8886 0.8880 0.8875 0.8869
704.000000 0.8864 0.8858 0.8853 0.8847 0.8842
709.000000 0.8837 0.8832 0.8821 0.8783 0.8736
714.000000 0.8690 0.8644 0.8587 0.8525 0.8455
719.000000 0.8377 0.8299 0.8200 0.8086 0.7967
724.000000 0.7845 0.7725 0.7610 0.7494 0.7365
729.000000 0.7223 0.7046 0.6835 0.6676 0.6513
734.000000 0.5930 0.5690 0.5244 0.5144 0.5102
739.000000 0.5118 0.5100 0.5108 0.5117 0.5136
744.000000 0.5195 0.5336 0.5705 0.5851 0.5969
749.000000 0.6118 0.6267 0.6997 0.8701 0.8802
754.000000 0.8852 0.8891 0.8923 0.8939 0.8950
759.000000 0.8952 0.8954 0.8956 0.8965 0.8949
764.000000 0.8943 0.8930 0.8912 0.8893 0.8865
769.000000 0.8837 0.8810 0.8776 0.8740 0.8705
774.000000 0.8669 0.8641 0.8614 0.8591 0.8572
779.000000 0.8553 0.8535 0.8519 0.8456 0.8384
784.000000 0.8344 0.8320 0.8319 0.8313 0.8319
789.000000 0.8338 0.8370 0.8401 0.8431 0.8463
794.000000 0.8495 0.8519 0.8534 0.8549 0.8567
799.000000 0.8587 0.8622 0.8678 0.8756 0.8822
804.000000 0.8883 0.8947 0.9012 0.9063 0.9101
809.000000 0.9118 0.9134 0.9144 0.9152 0.9160
814.000000 0.9167 0.9175 0.9183 0.9187 0.9190
819.000000 0.9193 0.9197 0.9199 0.9197 0.9196
824.000000 0.9195 0.9193 0.9192 0.9188 0.9183
829.000000 0.9179 0.9175 0.9170 0.9166 0.9159
834.000000 0.9152 0.9145 0.9138 0.9131 0.9124
839.000000 0.9117 0.9110 0.9103 0.9092 0.9082
844.000000 0.9072 0.9061 0.9051 0.9044 0.9068
849.000000 0.9041 0.9039 0.9037 0.9040 0.9045
854.000000 0.9050 0.9055 0.9061 0.9066 0.9071
859.000000 0.9076 0.9081 0.9086 0.9091 0.9096
864.000000 0.9098 0.9101 0.9104 0.9107 0.9110
869.000000 0.9113 0.9116 0.9119 0.9121 0.9123
874.000000 0.9125 0.9127 0.9129 0.9131 0.9133
879.000000 0.9135 0.9137 0.9139 0.9140 0.9141
884.000000 0.9142 0.9143 0.9145 0.9146 0.9147
889.000000 0.9148 0.9149 0.9150 0.9150 0.9149
894.000000 0.9149 0.9148 0.9148 0.9147 0.9147
899.000000 0.9145 0.9141 0.9137 0.9134 0.9130
904.000000 0.9126 0.9121 0.9112 0.9102 0.9093
909.000000 0.9084 0.9075 0.9062 0.9045 0.9026
914.000000 0.8993 0.8959 0.8926 0.8872 0.8811
919.000000 0.8746 0.8665 0.8584 0.8499 0.8366
924.000000 0.8224 0.7975 0.7480 0.7246 0.7013
929.000000 0.6779 0.6770 0.6879 0.7021 0.7049
934.000000 0.5728 0.5728 0.6866 0.7018 0.6821
939.000000 0.7046 0.6276 0.6265 0.7704 0.7966
944.000000 0.8100 0.8178 0.8241 0.8288 0.8335
949.000000 0.8374 0.8401 0.8427 0.8454 0.8474
954.000000 0.8487 0.8501 0.8514 0.8527 0.8540
959.000000 0.8554 0.8576 0.8608 0.8632 0.8637
964.000000 0.8641 0.8640 0.8635 0.8624 0.8643
969.000000 0.8593 0.8544 0.8468 0.8370 0.8144
974.000000 0.8010 0.7950 0.7933 0.7917 0.7902
979.000000 0.7886 0.7875 0.7868 0.7872 0.7905
984.000000 0.7938 0.7983 0.8031 0.8067 0.8113
989.000000 0.8173 0.8294 0.8388 0.8472 0.8575
994.000000 0.8660 0.8727 0.8771 0.8809 0.8838
999.000000 0.8867 0.8894 0.8911 0.8927 0.8943
1004.000000 0.8960 0.8974 0.8987 0.8999 0.9012
1009.000000 0.9024 0.9037 0.9048 0.9058 0.9068
1014.000000 0.9079 0.9085 0.9089 0.9092 0.9096
1019.000000 0.9099 0.9103 0.9106 0.9108 0.9109
1024.000000 0.9110 0.9111 0.9113 0.9114 0.9115
1029.000000 0.9115 0.9116 0.9117 0.9117 0.9118
1034.000000 0.9118 0.9117 0.9114 0.9111 0.9109
1039.000000 0.9106 0.9103 0.9100 0.9097 0.9094
1044.000000 0.9092 0.9089 0.9086 0.9082 0.9079
1049.000000 0.9075 0.9072 0.9068 0.9065 0.9061
1054.000000 0.9057 0.9054 0.9050 0.9047 0.9044
1059.000000 0.9042 0.9041 0.9039 0.9057 0.9035
1064.000000 0.9033 0.9031 0.9029 0.9027 0.9026
1069.000000 0.9024 0.9022 0.9020 0.9018 0.9016
1074.000000 0.9014 0.9012 0.9010 0.9008 0.9006
1079.000000 0.9004 0.9005 0.9009 0.9012 0.9016
1084.000000 0.9020 0.9024 0.9028 0.9033 0.9041
1089.000000 0.9048 0.9056 0.9063 0.9071 0.9078
1094.000000 0.9086 0.9092 0.9099 0.9105 0.9112
1099.000000 0.9119 0.9125 0.9128 0.9131 0.9134
1104.000000 0.9137 0.9140 0.9143 0.9146 0.9149
1109.000000 0.9152 0.9155 0.9158 0.9160 0.9162
1114.000000 0.9164 0.9166 0.9169 0.9171 0.9173
1119.000000 0.9175 0.9177 0.9179 0.9181 0.9183
1124.000000 0.9187 0.9190 0.9193 0.9197 0.9199
1129.000000 0.9199 0.9199 0.9199 0.9199 0.9199
1134.000000 0.9199 0.9199 0.9198 0.9196 0.9194
1139.000000 0.9192 0.9190 0.9188 0.9184 0.9180
1144.000000 0.9175 0.9170 0.9166 0.9161 0.9156
1149.000000 0.9152 0.9147 0.9142 0.9137 0.9132
1154.000000 0.9123 0.9114 0.9106 0.9097 0.9088
1159.000000 0.9080 0.9071 0.9057 0.9039 0.9022
1164.000000 0.9004 0.8986 0.8956 0.8922 0.8888
1169.000000 0.8853 0.8812 0.8766 0.8720 0.8673
1174.000000 0.8548 0.8501 0.8466 0.8456 0.8446
1179.000000 0.8443 0.8440 0.8441 0.8407 0.8455
1184.000000 0.8468 0.8487 0.8514 0.8546 0.8577
1189.000000 0.8620 0.8666 0.8723 0.8791 0.8867
1194.000000 0.8952 0.9011 0.9027 0.9036 0.9042
1199.000000 0.9049 0.9053 0.9059 0.9066 0.9072
1204.000000 0.9072 0.9071 0.9070 0.9069 0.9061
1209.000000 0.9043 0.9020 0.8996 0.8958 0.8906
1214.000000 0.8859 0.8827 0.8803 0.8778 0.8767
1219.000000 0.8760 0.8752 0.8746 0.8754 0.8750
1224.000000 0.8758 0.8770 0.8784 0.8801 0.8818
1229.000000 0.8842 0.8867 0.8892 0.8912 0.8929
1234.000000 0.8946 0.8959 0.8964 0.8969 0.8969
1239.000000 0.8960 0.8951 0.8942 0.8930 0.8919
1244.000000 0.8907 0.8895 0.8884 0.8869 0.8854
1249.000000 0.8839 0.8823 0.8808 0.8793 0.8778
1254.000000 0.8762 0.8747 0.8731 0.8714 0.8695
1259.000000 0.8676 0.8656 0.8646 0.8636 0.8627
1264.000000 0.8619 0.8619 0.8619 0.8619 0.8619
1269.000000 0.8623 0.8626 0.8635 0.8645 0.8655
1274.000000 0.8661 0.8666 0.8671 0.8676 0.8681
1279.000000 0.8686 0.8691 0.8696 0.8701 0.8705
1284.000000 0.8709 0.8714 0.8718 0.8723 0.8724
1289.000000 0.8723 0.8722 0.8721 0.8717 0.8713
1294.000000 0.8710 0.8706 0.8703 0.8701 0.8701
1299.000000 0.8701 0.8701 0.8697 0.8692 0.8686
1304.000000 0.8679 0.8671 0.8663 0.8655 0.8647
1309.000000 0.8639 0.8637 0.8634 0.8632 0.8629
1314.000000 0.8626 0.8624 0.8624 0.8635 0.8643
1319.000000 0.8651 0.8658 0.8666 0.8673 0.8685
1324.000000 0.8699 0.8712 0.8725 0.8738 0.8753
1329.000000 0.8770 0.8786 0.8803 0.8821 0.8839
1334.000000 0.8858 0.8875 0.8882 0.8889 0.8888
1339.000000 0.8887 0.8886 0.8883 0.8876 0.8869
1344.000000 0.8862 0.8848 0.8833 0.8818 0.8802
1349.000000 0.8785 0.8769 0.8753 0.8736 0.8723
1354.000000 0.8709 0.8695 0.8684 0.8677 0.8670
1359.000000 0.8664 0.8662 0.8667 0.8672 0.8652
1364.000000 0.8687 0.8694 0.8704 0.8713 0.8723
1369.000000 0.8732 0.8742 0.8752 0.8761 0.8771
1374.000000 0.8781 0.8790 0.8811 0.8835 0.8858
1379.000000 0.8901 0.8945 0.9009 0.9065 0.9088
1384.000000 0.9084 0.9080 0.9073 0.9088 0.9027
1389.000000 0.8998 0.8969 0.8929 0.8899 0.8882
1394.000000 0.8877 0.8871 0.8869 0.8866 0.8860
1399.000000 0.8855 0.8848 0.8838 0.8828 0.8818
1404.000000 0.8809 0.8799 0.8789 0.8769 0.8743
1409.000000 0.8717 0.8690 0.8664 0.8637 0.8608
1414.000000 0.8559 0.8510 0.8461 0.8406 0.8346
1419.000000 0.8295 0.8247 0.8203 0.8173 0.8156
1424.000000 0.8149 0.8141 0.8139 0.8144 0.8150
1429.000000 0.8155 0.8162 0.8171 0.8181 0.8190
1434.000000 0.8200 0.8215 0.8230 0.8245 0.8258
1439.000000 0.8267 0.8276 0.8289 0.8272 0.8266
1444.000000 0.8256 0.8246 0.8236 0.8225 0.8215
1449.000000 0.8205 0.8196 0.8186 0.8177 0.8175
1454.000000 0.8174 0.8176 0.8157 0.8222 0.8251
1459.000000 0.8277 0.8303 0.8329 0.8354 0.8380
1464.000000 0.8406 0.8432 0.8458 0.8484 0.8509
1469.000000 0.8535 0.8561 0.8588 0.8614 0.8641
1474.000000 0.8667 0.8693 0.8719 0.8744 0.8770
1479.000000 0.8795 0.8820 0.8844 0.8854 0.8862
1484.000000 0.8871 0.8880 0.8887 0.8893 0.8899
1489.000000 0.8904 0.8910 0.8913 0.8914 0.8916
1494.000000 0.8919 0.8921 0.8923 0.8926 0.8928
1499.000000 0.8931 0.8933 0.8935 0.8937 0.8939
1504.000000 0.8940 0.8942 0.8944 0.8945 0.8947
1509.000000 0.8949 0.8950 0.8951 0.8951 0.8951
1514.000000 0.8951 0.8951 0.8951 0.8951 0.8951
1519.000000 0.8951 0.8951 0.8951 0.8951 0.8951
1524.000000 0.8951 0.8952 0.8952 0.8952 0.8952
1529.000000 0.8952 0.8952 0.8952 0.8952 0.8952
1534.000000 0.8952 0.8952 0.8952 0.8952 0.8952
1539.000000 0.8952 0.8954 0.8987 0.8956 0.8958
1544.000000 0.8959 0.8961 0.8962 0.8964 0.8964
1549.000000 0.8964 0.8964 0.8964 0.8964 0.8962
1554.000000 0.8959 0.8955 0.8951 0.8948 0.8944
1559.000000 0.8940 0.8936 0.8932 0.8928 0.8925
1564.000000 0.8924 0.8924 0.8923 0.8922 0.8922
1569.000000 0.8921 0.8921 0.8922 0.8922 0.8922
1574.000000 0.8922 0.8923 0.8924 0.8926 0.8927
1579.000000 0.8929 0.8930 0.8931 0.8933 0.8934
1584.000000 0.8934 0.8935 0.8936 0.8936 0.8937
1589.000000 0.8938 0.8938 0.8939 0.8940 0.8940
1594.000000 0.8941 0.8941 0.8939 0.8938 0.8936
1599.000000 0.8934 0.8932 0.8931 0.8929 0.8927
1604.000000 0.8926 0.8924 0.8922 0.8920 0.8918
1609.000000 0.8915 0.8913 0.8911 0.8908 0.8906
1614.000000 0.8904 0.8902 0.8899 0.8897 0.8895
1619.000000 0.8892 0.8890 0.8888 0.8880 0.8871
1624.000000 0.8863 0.8854 0.8846 0.8837 0.8829
1629.000000 0.8820 0.8809 0.8796 0.8784 0.8772
1634.000000 0.8760 0.8747 0.8735 0.8723 0.8711
1639.000000 0.8699 0.8688 0.8678 0.8668 0.8657
1644.000000 0.8650 0.8648 0.8646 0.8644 0.8642
1649.000000 0.8640 0.8637 0.8638 0.8643 0.8648
1654.000000 0.8654 0.8662 0.8671 0.8682 0.8697
1659.000000 0.8713 0.8732 0.8759 0.8784 0.8804
1664.000000 0.8824 0.8837 0.8847 0.8856 0.8858
1669.000000 0.8859 0.8860 0.8861 0.8863 0.8866
1674.000000 0.8869 0.8870 0.8870 0.8870 0.8870
1679.000000 0.8869 0.8869 0.8869 0.8868 0.8868
1684.000000 0.8868 0.8868 0.8867 0.8867 0.8867
1689.000000 0.8867 0.8866 0.8866 0.8866 0.8867
1694.000000 0.8867 0.8868 0.8869 0.8869 0.8870
1699.000000 0.8870 0.8871 0.8872 0.8872 0.8873
1704.000000 0.8874 0.8874 0.8875 0.8875 0.8876
1709.000000 0.8877 0.8877 0.8878 0.8878 0.8878
1714.000000 0.8877 0.8877 0.8877 0.8876 0.8876
1719.000000 0.8876 0.8875 0.8875 0.8875 0.8875
1724.000000 0.8875 0.8876 0.8876 0.8877 0.8877
1729.000000 0.8878 0.8878 0.8879 0.8880 0.8880
1734.000000 0.8881 0.8881 0.8882 0.8882 0.8883
1739.000000 0.8884 0.8886 0.8887 0.8889 0.8890
1744.000000 0.8891 0.8893 0.8894 0.8896 0.8891
1749.000000 0.8899 0.8900 0.8901 0.8903 0.8905
1754.000000 0.8907 0.8909 0.8911 0.8914 0.8916
1759.000000 0.8918 0.8920 0.8922 0.8924 0.8926
1764.000000 0.8928 0.8930 0.8932 0.8934 0.8934
1769.000000 0.8935 0.8935 0.8935 0.8936 0.8936
1774.000000 0.8936 0.8937 0.8937 0.8937 0.8938
1779.000000 0.8938 0.8937 0.8935 0.8933 0.8931
1784.000000 0.8929 0.8928 0.8926 0.8924 0.8922
1789.000000 0.8920 0.8918 0.8916 0.8915 0.8913
1794.000000 0.8912 0.8911 0.8910 0.8909 0.8907
1799.000000 0.8906 0.8905 0.8904 0.8902 0.8901
1804.000000 0.8900 0.8898 0.8896 0.8894 0.8892
1809.000000 0.8890 0.8888 0.8886 0.8884 0.8882
1814.000000 0.8880 0.8879 0.8878 0.8877 0.8876
1819.000000 0.8875 0.8874 0.8873 0.8871 0.8870
1824.000000 0.8869 0.8868 0.8867 0.8866 0.8865
1829.000000 0.8864 0.8862 0.8861 0.8860 0.8859
1834.000000 0.8858 0.8856 0.8853 0.8851 0.8849
1839.000000 0.8846 0.8844 0.8842 0.8839 0.8837
1844.000000 0.8835 0.8832 0.8828 0.8819 0.8811
1849.000000 0.8802 0.8793 0.8784 0.8774 0.8764
1854.000000 0.8753 0.8743 0.8733 0.8723 0.8713
1859.000000 0.8703 0.8695 0.8689 0.8683 0.8676
1864.000000 0.8670 0.8664 0.8656 0.8661 0.8666
1869.000000 0.8672 0.8678 0.8688 0.8699 0.8709
1874.000000 0.8720 0.8730 0.8745 0.8762 0.8780
1879.000000 0.8795 0.8807 0.8820 0.8832 0.8844
1884.000000 0.8855 0.8865 0.8875 0.8885 0.8895
1889.000000 0.8899 0.8901 0.8903 0.8904 0.8906
1894.000000 0.8908 0.8910 0.8910 0.8911 0.8912
1899.000000 0.8912 0.8913 0.8914 0.8914 0.8915
1904.000000 0.8916 0.8916 0.8917 0.8918 0.8917
1909.000000 0.8917 0.8917 0.8916 0.8916 0.8916
1914.000000 0.8915 0.8915 0.8915 0.8914 0.8914
1919.000000 0.8914 0.8914 0.8914 0.8914 0.8914
1924.000000 0.8914 0.8914 0.8914 0.8914 0.8914
1929.000000 0.8914 0.8914 0.8914 0.8912 0.8910
1934.000000 0.8908 0.8906 0.8903 0.8901 0.8918
1939.000000 0.8897 0.8895 0.8893 0.8891 0.8888
1944.000000 0.8886 0.8884 0.8882 0.8880 0.8889
1949.000000 0.8898 0.8908 0.8924 0.8945 0.8960
1954.000000 0.8967 0.8974 0.8974 0.8970 0.8964
1959.000000 0.8952 0.8939 0.8927 0.8913 0.8899
1964.000000 0.8888 0.8882 0.8879 0.8876 0.8876
1969.000000 0.8876 0.8876 0.8876 0.8876 0.8876
1974.000000 0.8875 0.8875 0.8874 0.8873 0.8873
1979.000000 0.8872 0.8871 0.8871 0.8870 0.8869
1984.000000 0.8869 0.8869 0.8868 0.8868 0.8867
1989.000000 0.8867 0.8867 0.8866 0.8866 0.8866
1994.000000 0.8866 0.8868 0.8871 0.8873 0.8875
1999.000000 0.8877 0.8879 0.8881 0.8883 0.8884
2004.000000 0.8886 0.8887 0.8888 0.8889 0.8890
2009.000000 0.8891 0.8892 0.8893 0.8894 0.8895
2014.000000 0.8897 0.8898 0.8899 0.8900 0.8901
2019.000000 0.8902 0.8903 0.8904 0.8905 0.8905
2024.000000 0.8906 0.8906 0.8907 0.8907 0.8908
2029.000000 0.8908 0.8909 0.8909 0.8909 0.8909
2034.000000 0.8910 0.8910 0.8910 0.8910 0.8910
2039.000000 0.8910 0.8911 0.8911 0.8911 0.8911
2044.000000 0.8912 0.8912 0.8912 0.8912 0.8912
2049.000000 0.8912 0.8912 0.8912 0.8912 0.8912
2054.000000 0.8912 0.8911 0.8911 0.8911 0.8911
2059.000000 0.8910 0.8910 0.8910 0.8910 0.8910
2064.000000 0.8910 0.8909 0.8909 0.8909 0.8909
2069.000000 0.8908 0.8908 0.8908 0.8908 0.8907
2074.000000 0.8907 0.8907 0.8907 0.8907 0.8907
2079.000000 0.8906 0.8906 0.8906 0.8906 0.8905
2084.000000 0.8905 0.8904 0.8904 0.8903 0.8903
2089.000000 0.8902 0.8902 0.8901 0.8901 0.8900
2094.000000 0.8899 0.8898 0.8898 0.8897 0.8897
2099.000000 0.8896 0.8896 0.8895 0.8895 0.8894
2104.000000 0.8894 0.8893 0.8892 0.8891 0.8891
2109.000000 0.8890 0.8890 0.8889 0.8889 0.8888
2114.000000 0.8888 0.8887 0.8887 0.8886 0.8885
2119.000000 0.8884 0.8884 0.8883 0.8883 0.8882
2124.000000 0.8882 0.8881 0.8881 0.8880 0.8880
2129.000000 0.8879 0.8878 0.8877 0.8877 0.8876
2134.000000 0.8875 0.8874 0.8874 0.8873 0.8872
2139.000000 0.8871 0.8870 0.8869 0.8869 0.8868
2144.000000 0.8867 0.8866 0.8866 0.8865 0.8864
2149.000000 0.8863 0.8863 0.8862 0.8861 0.8860
2154.000000 0.8859 0.8858 0.8858 0.8857 0.8856
2159.000000 0.8855 0.8855 0.8854 0.8853 0.8852
2164.000000 0.8852 0.8851 0.8851 0.8850 0.8850
2169.000000 0.8849 0.8849 0.8848 0.8848 0.8847
2174.000000 0.8847 0.8846 0.8846 0.8845 0.8845
2179.000000 0.8844 0.8844 0.8843 0.8843 0.8842
2184.000000 0.8842 0.8841 0.8841 0.8840 0.8840
2189.000000 0.8839 0.8839 0.8839 0.8839 0.8838
2194.000000 0.8838 0.8837 0.8837 0.8836 0.8836
2199.000000 0.8835 0.8835 0.8834 0.8834 0.8833
2204.000000 0.8833 0.8832 0.8832 0.8831 0.8831
2209.000000 0.8830 0.8830 0.8829 0.8829 0.8828
2214.000000 0.8828 0.8828 0.8828 0.8827 0.8827
2219.000000 0.8826 0.8826 0.8825 0.8825 0.8824
2224.000000 0.8824 0.8824 0.8824 0.8823 0.8823
2229.000000 0.8822 0.8822 0.8821 0.8821 0.8821
2234.000000 0.8821 0.8820 0.8820 0.8819 0.8819
2239.000000 0.8818 0.8818 0.8817 0.8817 0.8817
2244.000000 0.8817 0.8816 0.8816 0.8815 0.8815
2249.000000 0.8814 0.8814 0.8813 0.8813 0.8813
2254.000000 0.8813 0.8812 0.8812 0.8811 0.8811
2259.000000 0.8810 0.8810 0.8809 0.8809 0.8808
2264.000000 0.8807 0.8806 0.8805 0.8804 0.8803
2269.000000 0.8801 0.8800 0.8799 0.8798 0.8797
2274.000000 0.8796 0.8795 0.8794 0.8793 0.8792
2279.000000 0.8790 0.8789 0.8788 0.8787 0.8786
2284.000000 0.8785 0.8784 0.8783 0.8781 0.8779
2289.000000 0.8777 0.8776 0.8774 0.8772 0.8770
2294.000000 0.8769 0.8766 0.8763 0.8760 0.8757
2299.000000 0.8753 0.8750 0.8747 0.8744 0.8741
2304.000000 0.8738 0.8734 0.8731 0.8728 0.8725
2309.000000 0.8721 0.8718 0.8711 0.8704 0.8695
2314.000000 0.8687 0.8679 0.8671 0.8663 0.8655
2319.000000 0.8647 0.8639 0.8630 0.8621 0.8611
2324.000000 0.8602 0.8592 0.8583 0.8577 0.8572
2329.000000 0.8568 0.8564 0.8559 0.8555 0.8551
2334.000000 0.8547 0.8545 0.8544 0.8545 0.8547
2339.000000 0.8546 0.8547 0.8548 0.8549 0.8550
2344.000000 0.8551 0.8551 0.8552 0.8553 0.8554
2349.000000 0.8556 0.8558 0.8561 0.8565 0.8568
2354.000000 0.8572 0.8575 0.8579 0.8584 0.8589
2359.000000 0.8595 0.8601 0.8606 0.8612 0.8618
2364.000000 0.8624 0.8630 0.8636 0.8642 0.8648
2369.000000 0.8654 0.8660 0.8666 0.8672 0.8678
2374.000000 0.8684 0.8690 0.8696 0.8702 0.8709
2379.000000 0.8715 0.8722 0.8728 0.8735 0.8741
2384.000000 0.8748 0.8753 0.8758 0.8760 0.8762
2389.000000 0.8763 0.8765 0.8767 0.8769 0.8770
2394.000000 0.8772 0.8774 0.8776 0.8777 0.8779
2399.000000 0.8780 0.8782 0.8783 0.8785 0.8786
2404.000000 0.8787 0.8788 0.8790 0.8791 0.8792
2409.000000 0.8792 0.8793 0.8793 0.8793 0.8793
2414.000000 0.8794 0.8794 0.8794 0.8794 0.8795
2419.000000 0.8795 0.8795 0.8795 0.8796 0.8796
2424.000000 0.8796 0.8796 0.8796 0.8796 0.8797
2429.000000 0.8797 0.8797 0.8797 0.8797 0.8797
2434.000000 0.8797 0.8797 0.8797 0.8797 0.8797
2439.000000 0.8797 0.8797 0.8797 0.8797 0.8797
2444.000000 0.8797 0.8797 0.8797 0.8797 0.8797
2449.000000 0.8797 0.8797 0.8797 0.8797 0.8796
2454.000000 0.8796 0.8796 0.8796 0.8795 0.8795
2459.000000 0.8795 0.8795 0.8794 0.8794 0.8794
2464.000000 0.8794 0.8793 0.8782 0.8793 0.8793
2469.000000 0.8792 0.8792 0.8792 0.8792 0.8791
2474.000000 0.8791 0.8791 0.8791 0.8790 0.8790
2479.000000 0.8789 0.8789 0.8788 0.8788 0.8787
2484.000000 0.8787 0.8786 0.8786 0.8785 0.8784
2489.000000 0.8783 0.8783 0.8782 0.8782 0.8781
2494.000000 0.8780 0.8779 0.8779 0.8778 0.8778
2499.000000 0.8777 0.8777 0.8776 0.8775 0.8774
2504.000000 0.8774 0.8773 0.8773 0.8772 0.8772
2509.000000 0.8771 0.8770 0.8769 0.8769 0.8768
2514.000000 0.8768 0.8767 0.8767 0.8766 0.8766
2519.000000 0.8765 0.8765 0.8764 0.8764 0.8763
2524.000000 0.8763 0.8762 0.8762 0.8761 0.8761
2529.000000 0.8760 0.8760 0.8759 0.8759 0.8758
2534.000000 0.8758 0.8757 0.8757 0.8756 0.8756
2539.000000 0.8755 0.8755 0.8754 0.8754 0.8753
2544.000000 0.8753 0.8752 0.8752 0.8751 0.8751
2549.000000 0.8750 0.8750 0.8749 0.8749 0.8748
2554.000000 0.8748 0.8747 0.8747 0.8746 0.8746
2559.000000 0.8746 0.8746 0.8745 0.8745 0.8744
2564.000000 0.8744 0.8743 0.8743 0.8742 0.8742
2569.000000 0.8741 0.8741 0.8741 0.8741 0.8740
2574.000000 0.8740 0.8739 0.8739 0.8738 0.8738
2579.000000 0.8737 0.8737 0.8736 0.8736 0.8736
2584.000000 0.8736 0.8735 0.8735 0.8734 0.8734
2589.000000 0.8733 0.8733 0.8732 0.8732 0.8731
2594.000000 0.8731 0.8730 0.8729 0.8728 0.8728
2599.000000 0.8727 0.8726 0.8725 0.8724 0.8723
2604.000000 0.8723 0.8722 0.8721 0.8720 0.8720
2609.000000 0.8719 0.8718 0.8718 0.8718 0.8718
2614.000000 0.8718 0.8718 0.8719 0.8719 0.8720
2619.000000 0.8720 0.8720 0.8720 0.8721 0.8721
2624.000000 0.8722 0.8722 0.8723 0.8723 0.8723
2629.000000 0.8723 0.8724 0.8724 0.8725 0.8725
2634.000000 0.8726 0.8726 0.8726 0.8726 0.8727
2639.000000 0.8727 0.8728 0.8728 0.8728 0.8728
2644.000000 0.8729 0.8729 0.8729 0.8728 0.8728
2649.000000 0.8727 0.8727 0.8726 0.8726 0.8725
2654.000000 0.8725 0.8724 0.8724 0.8723 0.8723
2659.000000 0.8723 0.8723 0.8722 0.8722 0.8721
2664.000000 0.8721 0.8720 0.8720 0.8719 0.8719
2669.000000 0.8718 0.8718 0.8717 0.8717 0.8716
2674.000000 0.8716 0.8716 0.8716 0.8715 0.8715
2679.000000 0.8714 0.8714 0.8713 0.8713 0.8712
2684.000000 0.8712 0.8711 0.8711 0.8710 0.8710
2689.000000 0.8710 0.8710 0.8709 0.8709 0.8709
2694.000000 0.8709 0.8708 0.8708 0.8708 0.8708
2699.000000 0.8707 0.8707 0.8707 0.8707 0.8706
2704.000000 0.8706 0.8706 0.8706 0.8705 0.8705
2709.000000 0.8705 0.8705 0.8704 0.8704 0.8704
2714.000000 0.8704 0.8703 0.8703 0.8702 0.8702
2719.000000 0.8701 0.8700 0.8699 0.8698 0.8697
2724.000000 0.8696 0.8695 0.8694 0.8693 0.8692
2729.000000 0.8691 0.8690 0.8689 0.8688 0.8687
2734.000000 0.8686 0.8685 0.8684 0.8683 0.8682
2739.000000 0.8681 0.8680 0.8678 0.8677 0.8676
2744.000000 0.8675 0.8674 0.8673 0.8672 0.8672
2749.000000 0.8671 0.8670 0.8669 0.8668 0.8667
2754.000000 0.8667 0.8666 0.8665 0.8664 0.8664
2759.000000 0.8663 0.8662 0.8661 0.8661 0.8660
2764.000000 0.8659 0.8658 0.8657 0.8655 0.8654
2769.000000 0.8653 0.8652 0.8651 0.8650 0.8649
2774.000000 0.8648 0.8646 0.8645 0.8644 0.8643
2779.000000 0.8642 0.8641 0.8640 0.8639 0.8638
2784.000000 0.8637 0.8636 0.8635 0.8634 0.8633
2789.000000 0.8632 0.8631 0.8630 0.8629 0.8628
2794.000000 0.8627 0.8626 0.8625 0.8624 0.8623
2799.000000 0.8621 0.8620 0.8617 0.8615 0.8613
2804.000000 0.8611 0.8609 0.8607 0.8604 0.8602
2809.000000 0.8600 0.8598 0.8596 0.8594 0.8591
2814.000000 0.8589 0.8587 0.8585 0.8581 0.8578
2819.000000 0.8573 0.8568 0.8563 0.8559 0.8554
2824.000000 0.8549 0.8544 0.8540 0.8535 0.8530
2829.000000 0.8519 0.8509 0.8492 0.8475 0.8455
2834.000000 0.8436 0.8410 0.8384 0.8358 0.8333
2839.000000 0.8296 0.8260 0.8219 0.8178 0.8127
2844.000000 0.8077 0.8012 0.7947 0.7844 0.7741
2849.000000 0.7504 0.7268 0.7254 0.7240 0.7238
2854.000000 0.7236 0.7236 0.7236 0.7237 0.7236
2859.000000 0.7240 0.7243 0.7261 0.7280 0.7306
2864.000000 0.7332 0.7359 0.7387 0.7424 0.7462
2869.000000 0.7498 0.7534 0.7569 0.7604 0.7636
2874.000000 0.7669 0.7699 0.7730 0.7760 0.7790
2879.000000 0.7807 0.7824 0.7840 0.7857 0.7861
2884.000000 0.7865 0.7864 0.7863 0.7861 0.7854
2889.000000 0.7855 0.7850 0.7845 0.7841 0.7835
2894.000000 0.7829 0.7822 0.7816 0.7798 0.7780
2899.000000 0.7726 0.7673 0.7616 0.7559 0.7421
2904.000000 0.7284 0.7193 0.7102 0.7019 0.6936
2909.000000 0.6872 0.6808 0.6744 0.6681 0.6580
2914.000000 0.6479 0.6205 0.5932 0.5858 0.5785
2919.000000 0.5719 0.5654 0.5579 0.5505 0.5373
2924.000000 0.5242 0.5090 0.4939 0.4909 0.4894
2929.000000 0.4879 0.4879 0.4893 0.4907 0.4971
2934.000000 0.5036 0.5095 0.5155 0.5219 0.5283
2939.000000 0.5424 0.5566 0.5602 0.5638 0.5683
2944.000000 0.5728 0.6109 0.6490 0.6540 0.6591
2949.000000 0.6621 0.6652 0.6667 0.6683 0.6820
2954.000000 0.6958 0.7031 0.7105 0.7144 0.7183
2959.000000 0.7219 0.7255 0.7280 0.7306 0.7331
2964.000000 0.7357 0.7390 0.7424 0.7462 0.7500
2969.000000 0.7560 0.7620 0.7673 0.7727 0.7770
2974.000000 0.7814 0.7857 0.7901 0.7932 0.7963
2979.000000 0.7985 0.8007 0.8029 0.8051 0.8069
2984.000000 0.8087 0.8101 0.8115 0.8128 0.8142
2989.000000 0.8144 0.8147 0.8149 0.8152 0.8154
2994.000000 0.8156 0.8157 0.8158 0.8159 0.8161
2999.000000 0.8162 0.8163 0.8164 0.8165 0.8169
3004.000000 0.8174 0.8179 0.8184 0.8190 0.8197
3009.000000 0.8205 0.8214 0.8222 0.8230 0.8240
3014.000000 0.8250 0.8260 0.8271 0.8281 0.8292
3019.000000 0.8302 0.8313 0.8324 0.8335 0.8345
3024.000000 0.8356 0.8367 0.8378 0.8389 0.8400
3029.000000 0.8411 0.8423 0.8435 0.8447 0.8459
3034.000000 0.8471 0.8482 0.8494 0.8503 0.8512
3039.000000 0.8521 0.8530 0.8538 0.8547 0.8552
3044.000000 0.8557 0.8558 0.8559 0.8560 0.8575
3049.000000 0.8561 0.8562 0.8559 0.8557 0.8554
3054.000000 0.8552 0.8549 0.8547 0.8544 0.8542
3059.000000 0.8536 0.8530 0.8522 0.8515 0.8507
3064.000000 0.8500 0.8491 0.8482 0.8469 0.8457
3069.000000 0.8445 0.8433 0.8417 0.8401 0.8381
3074.000000 0.8361 0.8341 0.8321 0.8299 0.8277
3079.000000 0.8255 0.8233 0.8210 0.8188 0.8159
3084.000000 0.8131 0.8102 0.8074 0.8057 0.8040
3089.000000 0.8030 0.8021 0.8023 0.8025 0.8028
3094.000000 0.8031 0.8041 0.8050 0.8061 0.8072
3099.000000 0.8089 0.8107 0.8132 0.8157 0.8184
3104.000000 0.8211 0.8238 0.8265 0.8298 0.8332
3109.000000 0.8363 0.8394 0.8424 0.8454 0.8482
3114.000000 0.8511 0.8534 0.8557 0.8569 0.8581
3119.000000 0.8583 0.8586 0.8587 0.8589 0.8590
3124.000000 0.8592 0.8592 0.8593 0.8593 0.8594
3129.000000 0.8594 0.8595 0.8595 0.8596 0.8596
3134.000000 0.8597 0.8597 0.8598 0.8598 0.8598
3139.000000 0.8598 0.8599 0.8599 0.8600 0.8600
3144.000000 0.8600 0.8600 0.8601 0.8601 0.8602
3149.000000 0.8602 0.8603 0.8603 0.8603 0.8602
3154.000000 0.8602 0.8601 0.8601 0.8600 0.8600
3159.000000 0.8599 0.8599 0.8598 0.8598 0.8597
3164.000000 0.8597 0.8596 0.8595 0.8594 0.8594
3169.000000 0.8593 0.8593 0.8592 0.8592 0.8591
3174.000000 0.8591 0.8590 0.8590 0.8589 0.8589
3179.000000 0.8588 0.8588 0.8587 0.8587 0.8586
3184.000000 0.8586 0.8585 0.8585 0.8584 0.8584
3189.000000 0.8584 0.8584 0.8583 0.8583 0.8582
3194.000000 0.8582 0.8581 0.8581 0.8580 0.8580
3199.000000 0.8579 0.8579 0.8578 0.8578 0.8578
3204.000000 0.8578 0.8577 0.8577 0.8577 0.8577
3209.000000 0.8577 0.8577 0.8577 0.8577 0.8577
3214.000000 0.8577 0.8577 0.8577 0.8577 0.8577
3219.000000 0.8577 0.8577 0.8577 0.8577 0.8577
3224.000000 0.8577 0.8577 0.8577 0.8577 0.8577
3229.000000 0.8577 0.8577 0.8577 0.8577 0.8577
3234.000000 0.8577 0.8577 0.8577 0.8577 0.8577
3239.000000 0.8577 0.8577 0.8577 0.8577 0.8577
3244.000000 0.8577 0.8576 0.8576 0.8576 0.8576
3249.000000 0.8576 0.8576 0.8576 0.8576 0.8576
3254.000000 0.8576 0.8575 0.8575 0.8575 0.8575
3259.000000 0.8575 0.8575 0.8575 0.8575 0.8575
3264.000000 0.8575 0.8575 0.8575 0.8574 0.8574
3269.000000 0.8574 0.8574 0.8574 0.8574 0.8574
3274.000000 0.8574 0.8573 0.8573 0.8573 0.8573
3279.000000 0.8572 0.8572 0.8571 0.8571 0.8570
3284.000000 0.8570 0.8569 0.8569 0.8568 0.8568
3289.000000 0.8568 0.8568 0.8567 0.8567 0.8566
3294.000000 0.8566 0.8565 0.8565 0.8564 0.8564
3299.000000 0.8564 0.8564 0.8563 0.8563 0.8562
3304.000000 0.8562 0.8561 0.8561 0.8560 0.8560
3309.000000 0.8559 0.8559 0.8559 0.8559 0.8558
3314.000000 0.8558 0.8558 0.8558 0.8557 0.8557
3319.000000 0.8557 0.8557 0.8557 0.8557 0.8556
3324.000000 0.8556 0.8556 0.8556 0.8556 0.8556
3329.000000 0.8555 0.8555 0.8555 0.8555 0.8555
3334.000000 0.8555 0.8554 0.8554 0.8554 0.8554
3339.000000 0.8554 0.8554 0.8553 0.8553 0.8553
3344.000000 0.8553 0.8552 0.8552 0.8552 0.8552
3349.000000 0.8552 0.8552 0.8551 0.8551 0.8551
3354.000000 0.8551 0.8551 0.8551 0.8550 0.8550
3359.000000 0.8550 0.8550 0.8550 0.8550 0.8550
3364.000000 0.8550 0.8549 0.8549 0.8549 0.8549
3369.000000 0.8549 0.8549 0.8548 0.8548 0.8548
3374.000000 0.8548 0.8548 0.8548 0.8547 0.8547
3379.000000 0.8547 0.8547 0.8547 0.8547 0.8546
3384.000000 0.8546 0.8546 0.8546 0.8546 0.8546
3389.000000 0.8546 0.8546 0.8545 0.8545 0.8545
3394.000000 0.8545 0.8545 0.8545 0.8544 0.8544
3399.000000 0.8544 0.8544 0.8544 0.8544 0.8544
3404.000000 0.8544 0.8544 0.8544 0.8544 0.8545
3409.000000 0.8545 0.8545 0.8545 0.8545 0.8545
3414.000000 0.8545 0.8545 0.8546 0.8546 0.8546
3419.000000 0.8546 0.8546 0.8546 0.8546 0.8546
3424.000000 0.8546 0.8546 0.8547 0.8547 0.8547
3429.000000 0.8547 0.8547 0.8547 0.8547 0.8547
3434.000000 0.8544 0.8547 0.8548 0.8548 0.8548
3439.000000 0.8548 0.8548 0.8548 0.8548 0.8548
3444.000000 0.8549 0.8549 0.8549 0.8549 0.8550
3449.000000 0.8550 0.8551 0.8551 0.8552 0.8552
3454.000000 0.8552 0.8552 0.8553 0.8553 0.8554
3459.000000 0.8554 0.8555 0.8555 0.8556 0.8556
3464.000000 0.8556 0.8556 0.8557 0.8557 0.8558
3469.000000 0.8558 0.8559 0.8559 0.8560 0.8560
3474.000000 0.8560 0.8560 0.8560 0.8560 0.8560
3479.000000 0.8560 0.8560 0.8560 0.8560 0.8560
3484.000000 0.8560 0.8560 0.8560 0.8560 0.8560
3489.000000 0.8560 0.8561 0.8561 0.8561 0.8561
3494.000000 0.8561 0.8561 0.8561 0.8561 0.8561
3499.000000 0.8561 0.8561 0.8561 0.8561 0.8561
3504.000000 0.8561 0.8561 0.8561 0.8561 0.8561
3509.000000 0.8561 0.8561 0.8561 0.8561 0.8561
3514.000000 0.8561 0.8561 0.8561 0.8561 0.8561
3519.000000 0.8560 0.8560 0.8560 0.8560 0.8560
3524.000000 0.8560 0.8560 0.8560 0.8560 0.8560
3529.000000 0.8560 0.8560 0.8560 0.8560 0.8560
3534.000000 0.8560 0.8559 0.8559 0.8559 0.8559
3539.000000 0.8559 0.8559 0.8559 0.8559 0.8559
3544.000000 0.8559 0.8559 0.8559 0.8559 0.8559
3549.000000 0.8558 0.8558 0.8558 0.8558 0.8558
3554.000000 0.8558 0.8558 0.8558 0.8558 0.8558
3559.000000 0.8558 0.8558 0.8558 0.8558 0.8557
3564.000000 0.8557 0.8557 0.8557 0.8556 0.8556
3569.000000 0.8555 0.8555 0.8555 0.8555 0.8554
3574.000000 0.8554 0.8553 0.8553 0.8552 0.8552
3579.000000 0.8552 0.8552 0.8551 0.8551 0.8550
3584.000000 0.8550 0.8549 0.8549 0.8549 0.8549
3589.000000 0.8548 0.8548 0.8547 0.8547 0.8546
3594.000000 0.8546 0.8546 0.8546 0.8545 0.8545
3599.000000 0.8544 0.8544 0.8543 0.8543 0.8543
3604.000000 0.8543 0.8542 0.8541 0.8540 0.8540
3609.000000 0.8539 0.8539 0.8538 0.8538 0.8537
3614.000000 0.8537 0.8536 0.8536 0.8535 0.8535
3619.000000 0.8534 0.8534 0.8533 0.8533 0.8532
3624.000000 0.8532 0.8531 0.8530 0.8529 0.8529
3629.000000 0.8528 0.8528 0.8527 0.8527 0.8526
3634.000000 0.8526 0.8525 0.8525 0.8524 0.8524
3639.000000 0.8523 0.8523 0.8522 0.8522 0.8521
3644.000000 0.8521 0.8520 0.8520 0.8519 0.8519
3649.000000 0.8519 0.8519 0.8518 0.8518 0.8518
3654.000000 0.8518 0.8518 0.8518 0.8517 0.8517
3659.000000 0.8517 0.8517 0.8516 0.8516 0.8516
3664.000000 0.8516 0.8516 0.8516 0.8515 0.8515
3669.000000 0.8515 0.8515 0.8514 0.8514 0.8514
3674.000000 0.8514 0.8514 0.8514 0.8513 0.8513
3679.000000 0.8513 0.8513 0.8512 0.8512 0.8512
3684.000000 0.8512 0.8512 0.8512 0.8511 0.8511
3689.000000 0.8511 0.8511 0.8510 0.8510 0.8510
3694.000000 0.8510 0.8510 0.8510 0.8509 0.8509
3699.000000 0.8509 0.8509 0.8508 0.8508 0.8508
3704.000000 0.8508 0.8508 0.8508 0.8507 0.8507
3709.000000 0.8507 0.8507 0.8506 0.8506 0.8506
3714.000000 0.8506 0.8506 0.8506 0.8505 0.8505
3719.000000 0.8505 0.8505 0.8505 0.8505 0.8505
3724.000000 0.8506 0.8506 0.8507 0.8507 0.8507
3729.000000 0.8507 0.8508 0.8508 0.8508 0.8508
3734.000000 0.8509 0.8509 0.8509 0.8509 0.8510
3739.000000 0.8510 0.8510 0.8510 0.8511 0.8511
3744.000000 0.8512 0.8512 0.8512 0.8512 0.8513
3749.000000 0.8513 0.8513 0.8513 0.8513 0.8513
3754.000000 0.8513 0.8513 0.8513 0.8513 0.8513
3759.000000 0.8513 0.8513 0.8513 0.8513 0.8513
3764.000000 0.8513 0.8513 0.8513 0.8512 0.8512
3769.000000 0.8512 0.8512 0.8511 0.8511 0.8510
3774.000000 0.8510 0.8510 0.8510 0.8509 0.8509
3779.000000 0.8509 0.8509 0.8508 0.8508 0.8507
3784.000000 0.8507 0.8507 0.8507 0.8506 0.8506
3789.000000 0.8506 0.8506
##END=
