##TITLE=METHYL ACETATE
##JCAMP-DX=4.24
##DATA TYPE=INFRARED SPECTRUM
##CLASS=COBLENTZ
##OWNER=COBLENTZ SOCIETY
Collection (C) 2018 copyright by the U.S. Secretary of Commerce
on behalf of the United States of America. All rights reserved.
##DATE=1963/03/15
##CAS REGISTRY NO=79-20-9
##MOLFORM=C3 H6 O2
##BP=58 C
##SOURCE REFERENCE=COBLENTZ NO. 6989
##$NIST SOURCE=COBLENTZ
##$NIST IMAGE=cob6989
##SPECTROMETER/DATA SYSTEM=PERKIN-ELMER 21 (GRATING)
##STATE=GAS (VAPOR, NO DILUENT)
##PATH LENGTH=10 CM
##SAMPLING PROCEDURE=TRANSMISSION
##RESOLUTION=4
##DATA PROCESSING=DIGITIZED BY NIST FROM HARD COPY
##XUNITS=MICROMETERS
##YUNITS=TRANSMITTANCE
##XFACTOR=1.000000
##YFACTOR=1
##DELTAX=000.004749
##FIRSTX=2.022
##LASTX=14.986
##FIRSTY=0.758
##MAXX=14.986
##MINX=2.022
##MAXY=0.854
##MINY=0.013
##NPOINTS=2731
##XYDATA=(X++(Y..Y))
2.022000 0.7580 0.7590 0.7580 0.7590 0.7600
2.045752 0.7600 0.7600 0.7600 0.7610 0.7630
2.069000 0.7630 0.7630 0.7630 0.7630 0.7630
2.092752 0.7630 0.7630 0.7630 0.7630 0.7640
2.117000 0.7640 0.7640 0.7640 0.7650 0.7650
2.140752 0.7650 0.7660 0.7660 0.7660 0.7670
2.164000 0.7670 0.7690 0.7690 0.7690 0.7700
2.187752 0.7710 0.7710 0.7720 0.7720 0.7730
2.212000 0.7730 0.7750 0.7760 0.7760 0.7760
2.235752 0.7770 0.7770 0.7770 0.7770 0.7760
2.259000 0.7760 0.7730 0.7720 0.7700 0.7670
2.282752 0.7670 0.7660 0.7660 0.7660 0.7670
2.307000 0.7670 0.7690 0.7690 0.7700 0.7700
2.330752 0.7710 0.7720 0.7750 0.7760 0.7760
2.354000 0.7760 0.7770 0.7780 0.7780 0.7780
2.377752 0.7780 0.7780 0.7780 0.7780 0.7780
2.402000 0.7780 0.7780 0.7780 0.7780 0.7780
2.425752 0.7790 0.7800 0.7800 0.7800 0.7800
2.449000 0.7800 0.7800 0.7800 0.7830 0.7830
2.472752 0.7840 0.7840 0.7840 0.7830 0.7830
2.497000 0.7820 0.7820 0.7820 0.7820 0.7830
2.520752 0.7840 0.7840 0.7850 0.7860 0.7880
2.544000 0.7890 0.7890 0.7900 0.7900 0.7910
2.567752 0.7920 0.7940 0.7940 0.7940 0.7940
2.592000 0.7950 0.7950 0.7950 0.7960 0.7960
2.615752 0.7970 0.7970 0.7970 0.7980 0.7980
2.639000 0.8000 0.8000 0.8000 0.8010 0.8010
2.662752 0.8020 0.8020 0.8020 0.8020 0.8020
2.687000 0.8020 0.8020 0.8010 0.8010 0.8000
2.710752 0.7980 0.7970 0.7970 0.7960 0.7960
2.734000 0.7950 0.7950 0.7950 0.7950 0.7950
2.757752 0.7950 0.7960 0.7970 0.7970 0.7970
2.782000 0.7980 0.7980 0.7980 0.7980 0.7980
2.805752 0.7970 0.7950 0.7920 0.7900 0.7880
2.829000 0.7850 0.7830 0.7800 0.7780 0.7770
2.852752 0.7760 0.7770 0.7800 0.7800 0.7880
2.877000 0.7910 0.7940 0.7950 0.7950 0.7960
2.900752 0.7970 0.7970 0.7980 0.7980 0.8000
2.924000 0.8010 0.8020 0.8030 0.8030 0.8030
2.947752 0.8040 0.8040 0.8050 0.8050 0.8050
2.972000 0.8070 0.8070 0.8070 0.8070 0.8070
2.995752 0.8070 0.8070 0.8080 0.8080 0.8090
3.019000 0.8100 0.8100 0.8100 0.8100 0.8110
3.042752 0.8110 0.8110 0.8110 0.8110 0.8110
3.066000 0.8110 0.8110 0.8110 0.8110 0.8100
3.089752 0.8090 0.8090 0.8080 0.8080 0.8080
3.114000 0.8080 0.8080 0.8090 0.8100 0.8100
3.137752 0.8100 0.8110 0.8110 0.8110 0.8110
3.161000 0.8110 0.8100 0.8080 0.8070 0.8050
3.184752 0.8040 0.8020 0.8010 0.8000 0.7950
3.209000 0.7900 0.7860 0.7800 0.7770 0.7670
3.232752 0.7610 0.7520 0.7420 0.7390 0.7220
3.256000 0.7090 0.6980 0.6710 0.6580 0.6410
3.279752 0.6290 0.6200 0.6130 0.6050 0.5970
3.304000 0.5950 0.5910 0.5900 0.5890 0.5890
3.327752 0.5840 0.5660 0.5410 0.5300 0.5210
3.351000 0.5140 0.4980 0.4980 0.5090 0.5210
3.374752 0.5440 0.5720 0.5960 0.6200 0.6440
3.399000 0.6580 0.6650 0.6690 0.6720 0.6770
3.422752 0.6900 0.7010 0.7080 0.7140 0.7210
3.446000 0.7270 0.7320 0.7350 0.7380 0.7380
3.469752 0.7380 0.7380 0.7360 0.7360 0.7320
3.494000 0.7320 0.7360 0.7390 0.7470 0.7580
3.517752 0.7690 0.7780 0.7790 0.7850 0.7900
3.541000 0.7920 0.7940 0.8000 0.8010 0.8020
3.564752 0.8070 0.8090 0.8130 0.8170 0.8200
3.589000 0.8210 0.8210 0.8210 0.8210 0.8210
3.612752 0.8210 0.8210 0.8220 0.8220 0.8230
3.636000 0.8230 0.8260 0.8270 0.8270 0.8280
3.659752 0.8280 0.8280 0.8290 0.8290 0.8300
3.684000 0.8300 0.8300 0.8300 0.8300 0.8320
3.707752 0.8320 0.8330 0.8330 0.8330 0.8340
3.731000 0.8340 0.8340 0.8340 0.8330 0.8330
3.754752 0.8320 0.8320 0.8320 0.8330 0.8330
3.779000 0.8330 0.8320 0.8320 0.8320 0.8320
3.802752 0.8300 0.8300 0.8290 0.8290 0.8280
3.826000 0.8270 0.8270 0.8260 0.8260 0.8270
3.849752 0.8270 0.8280 0.8280 0.8280 0.8290
3.874000 0.8300 0.8320 0.8320 0.8330 0.8330
3.897752 0.8330 0.8330 0.8330 0.8340 0.8340
3.921000 0.8340 0.8340 0.8340 0.8340 0.8340
3.944752 0.8340 0.8340 0.8340 0.8340 0.8340
3.969000 0.8340 0.8340 0.8330 0.8330 0.8330
3.992752 0.8320 0.8320 0.8300 0.8300 0.8290
4.016000 0.8290 0.8290 0.8290 0.8280 0.8280
4.039752 0.8280 0.8290 0.8290 0.8300 0.8300
4.064000 0.8320 0.8330 0.8330 0.8340 0.8340
4.087752 0.8340 0.8340 0.8340 0.8340 0.8340
4.111000 0.8340 0.8340 0.8330 0.8330 0.8330
4.134752 0.8330 0.8330 0.8330 0.8340 0.8340
4.159000 0.8340 0.8340 0.8340 0.8350 0.8350
4.182752 0.8350 0.8350 0.8360 0.8360 0.8380
4.206000 0.8400 0.8420 0.8450 0.8470 0.8470
4.229752 0.8480 0.8480 0.8480 0.8480 0.8500
4.254000 0.8510 0.8520 0.8530 0.8530 0.8540
4.277752 0.8540 0.8540 0.8540 0.8540 0.8540
4.301000 0.8530 0.8530 0.8520 0.8520 0.8500
4.324752 0.8470 0.8450 0.8420 0.8410 0.8400
4.349000 0.8390 0.8380 0.8360 0.8350 0.8350
4.372752 0.8340 0.8340 0.8340 0.8330 0.8330
4.396000 0.8330 0.8330 0.8340 0.8340 0.8340
4.419752 0.8340 0.8340 0.8340 0.8330 0.8320
4.444000 0.8320 0.8320 0.8330 0.8340 0.8340
4.467752 0.8340 0.8340 0.8330 0.8330 0.8320
4.491000 0.8320 0.8320 0.8300 0.8320 0.8320
4.514752 0.8320 0.8330 0.8330 0.8330 0.8330
4.539000 0.8330 0.8330 0.8330 0.8330 0.8330
4.562752 0.8330 0.8330 0.8330 0.8330 0.8330
4.586000 0.8340 0.8340 0.8340 0.8340 0.8340
4.609752 0.8340 0.8340 0.8340 0.8340 0.8340
4.634000 0.8340 0.8340 0.8340 0.8330 0.8330
4.657752 0.8320 0.8300 0.8300 0.8290 0.8290
4.681000 0.8280 0.8280 0.8270 0.8250 0.8220
4.704752 0.8200 0.8200 0.8170 0.8150 0.8130
4.729000 0.8090 0.8070 0.8030 0.8000 0.7890
4.752752 0.7830 0.7770 0.7750 0.7720 0.7720
4.776000 0.7710 0.7700 0.7700 0.7690 0.7690
4.799752 0.7690 0.7700 0.7710 0.7730 0.7790
4.824000 0.7830 0.7900 0.8000 0.8010 0.8020
4.847752 0.8090 0.8130 0.8140 0.8140 0.8150
4.871000 0.8150 0.8160 0.8160 0.8160 0.8160
4.894752 0.8160 0.8160 0.8170 0.8170 0.8170
4.918000 0.8170 0.8160 0.8160 0.8170 0.8190
4.941752 0.8200 0.8210 0.8210 0.8210 0.8210
4.966000 0.8220 0.8220 0.8220 0.8250 0.8250
4.989752 0.8270 0.8280 0.8290 0.8290 0.8290
5.013000 0.8300 0.8300 0.8320 0.8320 0.8320
5.036752 0.8330 0.8320 0.8320 0.8320 0.8300
5.061000 0.8300 0.8300 0.8300 0.8300 0.8300
5.084752 0.8300 0.8300 0.8300 0.8320 0.8320
5.108000 0.8320 0.8320 0.8320 0.8320 0.8300
5.131752 0.8300 0.8300 0.8300 0.8290 0.8290
5.156000 0.8300 0.8300 0.8290 0.8290 0.8280
5.179752 0.8280 0.8280 0.8270 0.8260 0.8210
5.203000 0.8170 0.8140 0.8130 0.8110 0.8100
5.226752 0.8090 0.8080 0.8070 0.8040 0.8030
5.251000 0.8030 0.8030 0.8020 0.8020 0.8020
5.274752 0.8030 0.8030 0.8030 0.8030 0.8040
5.298000 0.8040 0.8070 0.8080 0.8090 0.8100
5.321752 0.8110 0.8130 0.8160 0.8170 0.8190
5.346000 0.8200 0.8210 0.8220 0.8220 0.8230
5.369752 0.8250 0.8260 0.8260 0.8260 0.8270
5.393000 0.8270 0.8290 0.8290 0.8300 0.8300
5.416752 0.8300 0.8290 0.8290 0.8280 0.8280
5.441000 0.8270 0.8270 0.8250 0.8220 0.8210
5.464752 0.8200 0.8190 0.8160 0.8130 0.8130
5.488000 0.8040 0.8000 0.7860 0.7720 0.7470
5.511752 0.7130 0.7020 0.6860 0.6280 0.5820
5.536000 0.5390 0.4670 0.4220 0.3780 0.3410
5.559752 0.2510 0.2070 0.1600 0.1260 0.1050
5.583000 0.0760 0.0630 0.0480 0.0360 0.0330
5.606752 0.0290 0.0280 0.0300 0.0320 0.0380
5.631000 0.0390 0.0390 0.0390 0.0380 0.0360
5.654752 0.0290 0.0280 0.0280 0.0300 0.0380
5.678000 0.0510 0.0670 0.1000 0.1580 0.2100
5.701752 0.2880 0.3290 0.3500 0.3700 0.4130
5.726000 0.4630 0.4910 0.5030 0.5400 0.6020
5.749752 0.6260 0.6480 0.6700 0.6850 0.6890
5.773000 0.6910 0.7030 0.7090 0.7140 0.7190
5.796752 0.7250 0.7320 0.7500 0.7520 0.7580
5.821000 0.7610 0.7660 0.7700 0.7730 0.7760
5.844752 0.7780 0.7820 0.7840 0.7860 0.7880
5.868000 0.7890 0.7890 0.7890 0.7880 0.7860
5.891752 0.7850 0.7850 0.7850 0.7850 0.7850
5.916000 0.7840 0.7830 0.7820 0.7790 0.7790
5.939752 0.7780 0.7780 0.7770 0.7780 0.7790
5.963000 0.7800 0.7800 0.7820 0.7820 0.7800
5.986752 0.7800 0.7800 0.7820 0.7830 0.7850
6.011000 0.7890 0.7910 0.7920 0.7950 0.7960
6.034752 0.7970 0.7980 0.8010 0.8020 0.8030
6.058000 0.8030 0.8030 0.8040 0.8040 0.8040
6.081752 0.8040 0.8040 0.8030 0.8030 0.8020
6.106000 0.8010 0.8000 0.8000 0.7980 0.8000
6.129752 0.8000 0.8010 0.8010 0.8010 0.8020
6.153000 0.8020 0.8020 0.8020 0.8020 0.8020
6.176752 0.8020 0.8020 0.8020 0.8020 0.8010
6.201000 0.8010 0.8020 0.8030 0.8030 0.8040
6.224752 0.8050 0.8050 0.8050 0.8070 0.8070
6.248000 0.8080 0.8080 0.8090 0.8090 0.8090
6.271752 0.8090 0.8090 0.8080 0.8070 0.8070
6.296000 0.8050 0.8040 0.8040 0.8050 0.8050
6.319752 0.8050 0.8040 0.8040 0.8030 0.8030
6.343000 0.8030 0.8020 0.8010 0.8010 0.8010
6.366752 0.8000 0.7980 0.7970 0.7980 0.7980
6.391000 0.8000 0.8000 0.8010 0.8020 0.8020
6.414752 0.8010 0.8000 0.7960 0.7940 0.7940
6.438000 0.7920 0.7920 0.7910 0.7910 0.7920
6.461752 0.7920 0.7940 0.7920 0.7920 0.7910
6.486000 0.7910 0.7900 0.7900 0.7890 0.7860
6.509752 0.7850 0.7830 0.7830 0.7830 0.7820
6.533000 0.7800 0.7800 0.7800 0.7790 0.7790
6.556752 0.7790 0.7780 0.7770 0.7750 0.7730
6.581000 0.7710 0.7710 0.7700 0.7690 0.7670
6.604752 0.7670 0.7660 0.7660 0.7610 0.7590
6.628000 0.7520 0.7500 0.7400 0.7360 0.7330
6.651752 0.7280 0.7230 0.7210 0.7150 0.7100
6.676000 0.7050 0.7030 0.7020 0.7010 0.6970
6.699752 0.6900 0.6800 0.6780 0.6750 0.6670
6.723000 0.6610 0.6580 0.6540 0.6530 0.6470
6.746752 0.6440 0.6390 0.6390 0.6380 0.6380
6.770000 0.6380 0.6380 0.6360 0.6330 0.6300
6.793752 0.6280 0.6250 0.6210 0.6170 0.6080
6.818000 0.6020 0.5890 0.5820 0.5770 0.5700
6.841752 0.5520 0.5340 0.5020 0.4670 0.4440
6.865000 0.4190 0.3940 0.3800 0.3750 0.3710
6.888752 0.3710 0.3880 0.4070 0.4150 0.4260
6.913000 0.4290 0.4320 0.4300 0.4290 0.4190
6.936752 0.4190 0.4300 0.4420 0.4520 0.4670
6.960000 0.4780 0.4890 0.5020 0.5170 0.5260
6.983752 0.5360 0.5420 0.5770 0.6030 0.6260
7.008000 0.6400 0.6520 0.6640 0.6690 0.6720
7.031752 0.6800 0.6860 0.6900 0.7020 0.7070
7.055000 0.7100 0.7130 0.7160 0.7170 0.7190
7.078752 0.7200 0.7200 0.7200 0.7190 0.7170
7.103000 0.7140 0.7110 0.7050 0.7020 0.6920
7.126752 0.6880 0.6820 0.6750 0.6530 0.6300
7.150000 0.6040 0.5790 0.5600 0.5300 0.5090
7.173752 0.4640 0.4400 0.4140 0.3880 0.3520
7.198000 0.3070 0.2900 0.2860 0.2850 0.2840
7.221752 0.2840 0.2880 0.2920 0.2920 0.2950
7.245000 0.2960 0.2980 0.2980 0.3000 0.3000
7.268752 0.3020 0.3110 0.3150 0.3200 0.3270
7.293000 0.3300 0.3330 0.3340 0.3400 0.3510
7.316752 0.3590 0.3800 0.4010 0.4220 0.4390
7.340000 0.4600 0.4890 0.5100 0.5380 0.5580
7.363752 0.5790 0.6030 0.6150 0.6330 0.6500
7.388000 0.6600 0.6650 0.6700 0.6830 0.7000
7.411752 0.7040 0.7140 0.7210 0.7300 0.7330
7.435000 0.7420 0.7500 0.7500 0.7510 0.7530
7.458752 0.7540 0.7580 0.7590 0.7600 0.7600
7.483000 0.7610 0.7610 0.7630 0.7630 0.7660
7.506752 0.7670 0.7700 0.7710 0.7710 0.7710
7.530000 0.7710 0.7710 0.7700 0.7700 0.7690
7.553752 0.7660 0.7650 0.7640 0.7630 0.7610
7.578000 0.7590 0.7580 0.7540 0.7530 0.7510
7.601752 0.7500 0.7450 0.7440 0.7420 0.7410
7.625000 0.7400 0.7380 0.7340 0.7320 0.7300
7.648752 0.7290 0.7280 0.7260 0.7220 0.7200
7.673000 0.7170 0.7140 0.7100 0.7040 0.7020
7.696752 0.6910 0.6790 0.6700 0.6500 0.6320
7.720000 0.6140 0.6030 0.5910 0.5820 0.5590
7.743752 0.5390 0.5290 0.5030 0.4860 0.4700
7.768000 0.4610 0.4510 0.4410 0.4320 0.4250
7.791752 0.4210 0.4170 0.4100 0.4040 0.4000
7.815000 0.3800 0.3640 0.3550 0.3510 0.3480
7.838752 0.3480 0.3400 0.3170 0.3030 0.2970
7.863000 0.2750 0.2590 0.2480 0.2350 0.2110
7.886752 0.1860 0.1660 0.1390 0.1170 0.1010
7.910000 0.0650 0.0550 0.0480 0.0350 0.0300
7.933752 0.0280 0.0260 0.0230 0.0220 0.0200
7.958000 0.0200 0.0190 0.0170 0.0160 0.0150
7.981752 0.0150 0.0140 0.0140 0.0140 0.0130
8.005000 0.0130 0.0130 0.0130 0.0130 0.0130
8.028752 0.0130 0.0130 0.0140 0.0140 0.0140
8.053000 0.0140 0.0140 0.0140 0.0140 0.0140
8.076752 0.0140 0.0140 0.0140 0.0140 0.0150
8.100000 0.0150 0.0160 0.0170 0.0210 0.0250
8.123752 0.0270 0.0300 0.0350 0.0480 0.0530
8.148000 0.0660 0.0770 0.1000 0.1270 0.1400
8.171752 0.1570 0.1790 0.2050 0.2320 0.2520
8.195000 0.2860 0.3080 0.3280 0.3400 0.3510
8.218752 0.3670 0.3910 0.4100 0.4270 0.4400
8.243000 0.4590 0.4790 0.5000 0.5260 0.5340
8.266752 0.5380 0.5500 0.5570 0.5640 0.5780
8.290000 0.5900 0.6020 0.6090 0.6140 0.6230
8.313752 0.6320 0.6350 0.6390 0.6420 0.6530
8.338000 0.6600 0.6650 0.6660 0.6670 0.6730
8.361752 0.6820 0.6880 0.6920 0.7010 0.7020
8.385000 0.7030 0.7050 0.7090 0.7130 0.7160
8.408752 0.7190 0.7210 0.7220 0.7230 0.7260
8.433000 0.7270 0.7290 0.7300 0.7300 0.7320
8.456752 0.7320 0.7330 0.7350 0.7360 0.7360
8.480000 0.7380 0.7390 0.7390 0.7400 0.7410
8.503752 0.7420 0.7450 0.7470 0.7510 0.7530
8.528000 0.7530 0.7540 0.7580 0.7600 0.7610
8.551752 0.7610 0.7630 0.7650 0.7670 0.7670
8.575000 0.7690 0.7710 0.7720 0.7750 0.7780
8.598752 0.7790 0.7820 0.7820 0.7830 0.7830
8.622000 0.7830 0.7820 0.7820 0.7820 0.7800
8.645752 0.7800 0.7800 0.7800 0.7800 0.7800
8.670000 0.7790 0.7780 0.7780 0.7770 0.7760
8.693752 0.7750 0.7720 0.7720 0.7720 0.7710
8.717000 0.7700 0.7700 0.7690 0.7660 0.7640
8.740752 0.7630 0.7630 0.7590 0.7570 0.7540
8.765000 0.7530 0.7520 0.7510 0.7510 0.7510
8.788752 0.7500 0.7500 0.7500 0.7500 0.7470
8.812000 0.7460 0.7450 0.7440 0.7420 0.7420
8.835752 0.7450 0.7460 0.7480 0.7480 0.7480
8.860000 0.7500 0.7500 0.7510 0.7510 0.7530
8.883752 0.7530 0.7530 0.7540 0.7540 0.7550
8.907000 0.7580 0.7590 0.7600 0.7610 0.7610
8.930752 0.7610 0.7610 0.7630 0.7630 0.7630
8.955000 0.7640 0.7640 0.7640 0.7640 0.7640
8.978752 0.7640 0.7630 0.7630 0.7610 0.7610
9.002000 0.7600 0.7590 0.7590 0.7570 0.7550
9.025752 0.7540 0.7540 0.7530 0.7520 0.7520
9.050000 0.7510 0.7470 0.7440 0.7410 0.7380
9.073752 0.7350 0.7340 0.7330 0.7280 0.7250
9.097000 0.7220 0.7210 0.7170 0.7150 0.7140
9.120752 0.7140 0.7100 0.7070 0.7040 0.7020
9.145000 0.6960 0.6920 0.6900 0.6850 0.6790
9.168752 0.6770 0.6730 0.6700 0.6590 0.6540
9.192000 0.6520 0.6510 0.6410 0.6350 0.6290
9.215752 0.6220 0.6160 0.6100 0.6040 0.6020
9.240000 0.5900 0.5780 0.5650 0.5570 0.5530
9.263752 0.5500 0.5350 0.5300 0.5150 0.5080
9.287000 0.5020 0.4790 0.4690 0.4540 0.4410
9.310752 0.4290 0.4090 0.4020 0.3880 0.3720
9.335000 0.3600 0.3500 0.3390 0.3210 0.3110
9.358752 0.3030 0.3010 0.2900 0.2820 0.2790
9.382000 0.2760 0.2720 0.2700 0.2670 0.2650
9.405752 0.2610 0.2600 0.2550 0.2520 0.2500
9.430000 0.2410 0.2350 0.2270 0.2220 0.2220
9.453752 0.2280 0.2340 0.2360 0.2390 0.2400
9.477000 0.2410 0.2420 0.2440 0.2450 0.2420
9.500752 0.2400 0.2390 0.2380 0.2360 0.2350
9.525000 0.2360 0.2390 0.2410 0.2480 0.2510
9.548752 0.2520 0.2550 0.2660 0.2720 0.2790
9.572000 0.2890 0.3010 0.3030 0.3080 0.3190
9.595752 0.3280 0.3340 0.3400 0.3520 0.3610
9.620000 0.3710 0.3790 0.3890 0.4020 0.4090
9.643752 0.4150 0.4280 0.4320 0.4390 0.4400
9.667000 0.4410 0.4410 0.4330 0.4390 0.4450
9.690752 0.4570 0.4800 0.5030 0.5140 0.5290
9.715000 0.5450 0.5550 0.5610 0.5710 0.5790
9.738752 0.5840 0.5900 0.6000 0.6040 0.6110
9.762000 0.6210 0.6280 0.6300 0.6330 0.6360
9.785752 0.6410 0.6420 0.6530 0.6550 0.6590
9.810000 0.6630 0.6660 0.6690 0.6720 0.6760
9.833752 0.6800 0.6830 0.6850 0.6900 0.6950
9.857000 0.7020 0.7030 0.7040 0.7090 0.7130
9.880752 0.7150 0.7200 0.7220 0.7260 0.7290
9.905000 0.7300 0.7340 0.7360 0.7390 0.7400
9.928752 0.7420 0.7450 0.7520 0.7520 0.7540
9.952000 0.7540 0.7550 0.7570 0.7590 0.7600
9.975752 0.7610 0.7630 0.7650 0.7660 0.7660
10.000000 0.7660 0.7670 0.7690 0.7690 0.7700
10.023752 0.7700 0.7710 0.7710 0.7720 0.7730
10.047000 0.7750 0.7770 0.7780 0.7800 0.7800
10.070752 0.7820 0.7820 0.7820 0.7820 0.7830
10.095000 0.7840 0.7840 0.7850 0.7860 0.7880
10.118752 0.7890 0.7910 0.7920 0.7920 0.7940
10.142000 0.7950 0.7950 0.7960 0.7960 0.7970
10.165752 0.7980 0.8000 0.8010 0.8020 0.8020
10.190000 0.8030 0.8030 0.8040 0.8040 0.8050
10.213752 0.8050 0.8050 0.8050 0.8050 0.8050
10.237000 0.8070 0.8070 0.8070 0.8080 0.8080
10.260752 0.8080 0.8080 0.8080 0.8080 0.8080
10.285000 0.8080 0.8080 0.8080 0.8080 0.8090
10.308752 0.8090 0.8100 0.8110 0.8130 0.8130
10.332000 0.8140 0.8160 0.8190 0.8200 0.8200
10.355752 0.8210 0.8210 0.8210 0.8210 0.8220
10.380000 0.8220 0.8250 0.8250 0.8260 0.8290
10.403752 0.8320 0.8320 0.8330 0.8330 0.8330
10.427000 0.8340 0.8340 0.8340 0.8340 0.8340
10.450752 0.8340 0.8350 0.8350 0.8360 0.8360
10.474000 0.8390 0.8400 0.8410 0.8410 0.8410
10.497752 0.8410 0.8410 0.8420 0.8440 0.8440
10.522000 0.8440 0.8440 0.8440 0.8440 0.8440
10.545752 0.8450 0.8450 0.8450 0.8450 0.8450
10.569000 0.8450 0.8450 0.8450 0.8450 0.8450
10.592752 0.8450 0.8450 0.8440 0.8440 0.8440
10.617000 0.8440 0.8450 0.8450 0.8450 0.8450
10.640752 0.8450 0.8450 0.8450 0.8450 0.8450
10.664000 0.8450 0.8440 0.8440 0.8440 0.8440
10.687752 0.8440 0.8440 0.8450 0.8450 0.8450
10.712000 0.8450 0.8450 0.8450 0.8450 0.8450
10.735752 0.8450 0.8440 0.8440 0.8440 0.8440
10.759000 0.8440 0.8440 0.8440 0.8440 0.8440
10.782752 0.8440 0.8450 0.8460 0.8460 0.8470
10.807000 0.8470 0.8470 0.8470 0.8470 0.8470
10.830752 0.8470 0.8480 0.8480 0.8500 0.8500
10.854000 0.8510 0.8510 0.8510 0.8510 0.8510
10.877752 0.8500 0.8500 0.8480 0.8470 0.8450
10.902000 0.8450 0.8440 0.8440 0.8440 0.8450
10.925752 0.8450 0.8450 0.8460 0.8460 0.8470
10.949000 0.8470 0.8470 0.8470 0.8470 0.8460
10.972752 0.8460 0.8460 0.8460 0.8460 0.8460
10.997000 0.8460 0.8460 0.8460 0.8460 0.8460
11.020752 0.8470 0.8470 0.8470 0.8470 0.8470
11.044000 0.8470 0.8470 0.8470 0.8470 0.8480
11.067752 0.8470 0.8470 0.8460 0.8470 0.8470
11.092000 0.8470 0.8470 0.8470 0.8470 0.8470
11.115752 0.8470 0.8470 0.8470 0.8470 0.8470
11.139000 0.8470 0.8470 0.8480 0.8480 0.8480
11.162752 0.8470 0.8470 0.8460 0.8460 0.8440
11.187000 0.8440 0.8450 0.8450 0.8450 0.8450
11.210752 0.8450 0.8450 0.8450 0.8450 0.8450
11.234000 0.8450 0.8450 0.8450 0.8450 0.8450
11.257752 0.8450 0.8460 0.8450 0.8450 0.8450
11.282000 0.8450 0.8440 0.8440 0.8440 0.8420
11.305752 0.8420 0.8420 0.8420 0.8400 0.8390
11.329000 0.8390 0.8390 0.8390 0.8400 0.8400
11.352752 0.8400 0.8400 0.8400 0.8390 0.8380
11.377000 0.8360 0.8350 0.8340 0.8320 0.8300
11.400752 0.8290 0.8280 0.8280 0.8270 0.8270
11.424000 0.8270 0.8260 0.8250 0.8230 0.8220
11.447752 0.8210 0.8210 0.8190 0.8190 0.8160
11.472000 0.8160 0.8130 0.8090 0.8090 0.8030
11.495752 0.8020 0.8010 0.8000 0.7970 0.7950
11.519000 0.7920 0.7910 0.7890 0.7890 0.7840
11.542752 0.7800 0.7760 0.7730 0.7700 0.7690
11.567000 0.7630 0.7580 0.7520 0.7510 0.7480
11.590752 0.7450 0.7400 0.7350 0.7300 0.7250
11.614000 0.7200 0.7110 0.7050 0.7030 0.7020
11.637752 0.6970 0.6920 0.6820 0.6730 0.6690
11.662000 0.6540 0.6520 0.6410 0.6330 0.6290
11.685752 0.6230 0.6140 0.6080 0.6040 0.6020
11.709000 0.5940 0.5900 0.5880 0.5840 0.5760
11.732752 0.5700 0.5650 0.5640 0.5600 0.5550
11.757000 0.5530 0.5520 0.5500 0.5480 0.5480
11.780752 0.5500 0.5510 0.5510 0.5530 0.5540
11.804000 0.5570 0.5600 0.5640 0.5670 0.5720
11.827752 0.5780 0.5830 0.5850 0.5880 0.5910
11.852000 0.5940 0.6010 0.6020 0.6030 0.6050
11.875752 0.6070 0.6070 0.6080 0.6080 0.6080
11.899000 0.6080 0.6070 0.6040 0.6020 0.6020
11.922752 0.6010 0.5980 0.5970 0.5960 0.5950
11.947000 0.5910 0.5900 0.5890 0.5860 0.5860
11.970752 0.5850 0.5840 0.5830 0.5830 0.5820
11.994000 0.5830 0.5830 0.5840 0.5840 0.5850
12.017752 0.5860 0.5880 0.5890 0.5900 0.5910
12.042000 0.5920 0.5950 0.6010 0.6020 0.6030
12.065752 0.6080 0.6110 0.6160 0.6210 0.6250
12.089000 0.6300 0.6380 0.6420 0.6510 0.6520
12.112752 0.6540 0.6590 0.6640 0.6660 0.6670
12.137000 0.6690 0.6720 0.6760 0.6790 0.6830
12.160752 0.6860 0.6900 0.6940 0.7020 0.7030
12.184000 0.7040 0.7090 0.7130 0.7150 0.7170
12.207752 0.7200 0.7230 0.7280 0.7300 0.7330
12.231000 0.7340 0.7380 0.7400 0.7410 0.7440
12.254752 0.7500 0.7520 0.7540 0.7570 0.7610
12.279000 0.7610 0.7630 0.7640 0.7650 0.7670
12.302752 0.7690 0.7700 0.7710 0.7730 0.7750
12.326000 0.7770 0.7780 0.7800 0.7830 0.7850
12.349752 0.7880 0.7900 0.7900 0.7910 0.7920
12.374000 0.7940 0.7940 0.7950 0.7960 0.7980
12.397752 0.8000 0.8000 0.8010 0.8020 0.8040
12.421000 0.8040 0.8050 0.8050 0.8070 0.8080
12.444752 0.8090 0.8110 0.8140 0.8150 0.8150
12.469000 0.8160 0.8170 0.8190 0.8200 0.8200
12.492752 0.8200 0.8200 0.8210 0.8220 0.8230
12.516000 0.8260 0.8270 0.8280 0.8290 0.8300
12.539752 0.8300 0.8300 0.8320 0.8320 0.8320
12.564000 0.8320 0.8320 0.8330 0.8330 0.8330
12.587752 0.8330 0.8330 0.8330 0.8330 0.8340
12.611000 0.8340 0.8350 0.8350 0.8360 0.8360
12.634752 0.8380 0.8390 0.8390 0.8390 0.8390
12.659000 0.8390 0.8400 0.8390 0.8380 0.8360
12.682752 0.8360 0.8350 0.8350 0.8350 0.8360
12.706000 0.8380 0.8380 0.8380 0.8380 0.8380
12.729752 0.8380 0.8360 0.8360 0.8380 0.8380
12.754000 0.8390 0.8400 0.8400 0.8380 0.8380
12.777752 0.8380 0.8360 0.8360 0.8360 0.8360
12.801000 0.8360 0.8360 0.8350 0.8350 0.8380
12.824752 0.8360 0.8360 0.8360 0.8360 0.8380
12.849000 0.8390 0.8390 0.8390 0.8390 0.8390
12.872752 0.8380 0.8350 0.8350 0.8340 0.8340
12.896000 0.8340 0.8340 0.8350 0.8350 0.8350
12.919752 0.8350 0.8350 0.8350 0.8350 0.8350
12.944000 0.8350 0.8350 0.8350 0.8350 0.8360
12.967752 0.8360 0.8360 0.8360 0.8360 0.8350
12.991000 0.8350 0.8350 0.8350 0.8360 0.8360
13.014752 0.8360 0.8380 0.8390 0.8390 0.8360
13.039000 0.8360 0.8350 0.8350 0.8340 0.8340
13.062752 0.8340 0.8340 0.8340 0.8340 0.8340
13.086000 0.8340 0.8340 0.8340 0.8340 0.8340
13.109752 0.8340 0.8340 0.8330 0.8330 0.8320
13.134000 0.8320 0.8320 0.8330 0.8330 0.8330
13.157752 0.8330 0.8340 0.8340 0.8350 0.8350
13.181000 0.8350 0.8350 0.8340 0.8340 0.8330
13.204752 0.8330 0.8330 0.8330 0.8320 0.8330
13.229000 0.8330 0.8330 0.8330 0.8320 0.8320
13.252752 0.8300 0.8300 0.8300 0.8290 0.8280
13.276000 0.8280 0.8270 0.8270 0.8270 0.8270
13.299752 0.8270 0.8270 0.8270 0.8270 0.8270
13.324000 0.8270 0.8270 0.8270 0.8260 0.8260
13.347752 0.8250 0.8250 0.8250 0.8230 0.8230
13.371000 0.8230 0.8230 0.8250 0.8250 0.8250
13.394752 0.8260 0.8250 0.8250 0.8250 0.8250
13.419000 0.8230 0.8230 0.8230 0.8230 0.8230
13.442752 0.8220 0.8220 0.8210 0.8210 0.8220
13.466000 0.8220 0.8220 0.8220 0.8220 0.8230
13.489752 0.8220 0.8210 0.8220 0.8220 0.8220
13.514000 0.8220 0.8230 0.8220 0.8220 0.8220
13.537752 0.8220 0.8220 0.8220 0.8220 0.8210
13.561000 0.8210 0.8200 0.8200 0.8190 0.8190
13.584752 0.8190 0.8190 0.8190 0.8200 0.8200
13.609000 0.8200 0.8200 0.8190 0.8190 0.8190
13.632752 0.8190 0.8170 0.8170 0.8170 0.8160
13.656000 0.8160 0.8160 0.8160 0.8160 0.8170
13.679752 0.8170 0.8170 0.8160 0.8160 0.8150
13.704000 0.8150 0.8150 0.8150 0.8150 0.8150
13.727752 0.8140 0.8140 0.8140 0.8130 0.8130
13.751000 0.8110 0.8100 0.8100 0.8100 0.8090
13.774752 0.8090 0.8080 0.8080 0.8070 0.8070
13.799000 0.8070 0.8070 0.8070 0.8070 0.8070
13.822752 0.8070 0.8050 0.8050 0.8050 0.8040
13.846000 0.8030 0.8030 0.8030 0.8020 0.8020
13.869752 0.8010 0.8000 0.8000 0.7980 0.7980
13.894000 0.7970 0.7970 0.7970 0.7960 0.7960
13.917752 0.7960 0.7960 0.7960 0.7960 0.7960
13.941000 0.7960 0.7950 0.7950 0.7950 0.7940
13.964752 0.7940 0.7940 0.7950 0.7980 0.8000
13.989000 0.8000 0.8010 0.8010 0.8010 0.8000
14.012752 0.8000 0.7980 0.7970 0.7960 0.7950
14.036000 0.7950 0.7960 0.7950 0.7950 0.7940
14.059752 0.7940 0.7920 0.7920 0.7920 0.7920
14.083000 0.7920 0.7920 0.7920 0.7920 0.7920
14.106752 0.7920 0.7920 0.7910 0.7910 0.7900
14.131000 0.7900 0.7900 0.7900 0.7890 0.7890
14.154752 0.7890 0.7900 0.7900 0.7900 0.7900
14.178000 0.7900 0.7900 0.7890 0.7880 0.7880
14.201752 0.7860 0.7860 0.7860 0.7860 0.7860
14.226000 0.7860 0.7860 0.7860 0.7860 0.7860
14.249752 0.7860 0.7860 0.7860 0.7860 0.7850
14.273000 0.7860 0.7860 0.7860 0.7860 0.7850
14.296752 0.7850 0.7840 0.7840 0.7830 0.7820
14.321000 0.7800 0.7800 0.7800 0.7800 0.7800
14.344752 0.7790 0.7790 0.7790 0.7790 0.7790
14.368000 0.7790 0.7790 0.7790 0.7790 0.7790
14.391752 0.7780 0.7780 0.7770 0.7770 0.7770
14.416000 0.7770 0.7760 0.7760 0.7760 0.7760
14.439752 0.7760 0.7750 0.7750 0.7750 0.7750
14.463000 0.7750 0.7730 0.7730 0.7720 0.7720
14.486752 0.7710 0.7710 0.7700 0.7700 0.7700
14.511000 0.7690 0.7670 0.7660 0.7650 0.7650
14.534752 0.7650 0.7650 0.7650 0.7650 0.7650
14.558000 0.7650 0.7650 0.7650 0.7650 0.7640
14.581752 0.7630 0.7610 0.7610 0.7610 0.7610
14.606000 0.7600 0.7600 0.7600 0.7590 0.7580
14.629752 0.7580 0.7580 0.7570 0.7570 0.7570
14.653000 0.7570 0.7570 0.7570 0.7550 0.7550
14.676752 0.7550 0.7550 0.7540 0.7540 0.7530
14.701000 0.7530 0.7530 0.7530 0.7520 0.7520
14.724752 0.7520 0.7520 0.7520 0.7520 0.7520
14.748000 0.7530 0.7530 0.7530 0.7520 0.7520
14.771752 0.7520 0.7520 0.7510 0.7510 0.7500
14.796000 0.7500 0.7480 0.7470 0.7470 0.7460
14.819752 0.7460 0.7450 0.7440 0.7420 0.7420
14.843000 0.7410 0.7400 0.7400 0.7390 0.7380
14.866752 0.7380 0.7360 0.7360 0.7350 0.7350
14.891000 0.7340 0.7330 0.7300 0.7290 0.7280
14.914752 0.7270 0.7260 0.7260 0.7250 0.7250
14.938000 0.7230 0.7230 0.7230 0.7230 0.7230
14.961752 0.7210 0.7210 0.7210 0.7210 0.7210
14.986000 0.7200
##END=
