##TITLE=3-PENTANONE
##JCAMP-DX=4.24
##DATA TYPE=INFRARED SPECTRUM
##CLASS=COBLENTZ
##ORIGIN=PERKIN-ELMER CORP. (M. ZELLER)
##OWNER=COBLENTZ SOCIETY
Collection (C) 2018 copyright by the U.S. Secretary of Commerce
on behalf of the United States of America. All rights reserved.
##DATE=1977/07/08
##CAS REGISTRY NO=96-22-0
##MOLFORM=C5 H10 O
##BP=101 C
##SOURCE REFERENCE=COBLENTZ NO. 10517
##$NIST SOURCE=COBLENTZ
##$NIST IMAGE=cob-r10517
##SPECTROMETER/DATA SYSTEM=PERKIN-ELMER 180
##STATE=VAPOR (18 MICROLITER AT 180 C)
##PATH LENGTH=5 CM KBr CELL, CELL VOLUME: 80 CM^3
##SAMPLING PROCEDURE=TRANSMISSION
##RESOLUTION=2-3 CM^-^1
##DATA PROCESSING=DIGITIZED BY NIST FROM HARD COPY (FROM TWO SEGMENTS)
##XUNITS=1/CM
##YUNITS=TRANSMITTANCE
##XFACTOR=1.000000
##YFACTOR=1
##DELTAX=1.308259
##FIRSTX=402.617
##LASTX=3996.4
##FIRSTY=0.426
##MAXX=3996.4
##MINX=402.617
##MAXY=0.95
##MINY=0.11
##NPOINTS=2748
##XYDATA=(X++(Y..Y))
402.617000 0.4260 0.4410 0.4580 0.4640 0.4730
409.158295 0.4840 0.5019 0.5109 0.5219 0.5299
415.699591 0.5320 0.5350 0.5460 0.5560 0.5700
422.240886 0.5790 0.5909 0.6029 0.6159 0.6259
428.782182 0.6350 0.6430 0.6510 0.6540 0.6600
435.323477 0.6670 0.6730 0.6869 0.6979 0.7010
441.864772 0.7060 0.7100 0.7160 0.7240 0.7290
448.406068 0.7360 0.7489 0.7530 0.7570 0.7610
454.947363 0.7660 0.7680 0.7700 0.7760 0.7830
461.488658 0.7890 0.8009 0.8050 0.8090 0.8120
468.029954 0.8130 0.8140 0.8210 0.8260 0.8300
474.571249 0.8340 0.8360 0.8420 0.8480 0.8490
481.112545 0.8520 0.8550 0.8570 0.8590 0.8600
487.653840 0.8610 0.8620 0.8620 0.8620 0.8640
494.195135 0.8650 0.8660 0.8660 0.8660 0.8650
500.736431 0.8600 0.8491 0.8470 0.8480 0.8510
507.277726 0.8510 0.8510 0.8510 0.8520 0.8520
513.819021 0.8530 0.8530 0.8510 0.8510 0.8530
520.360317 0.8550 0.8560 0.8560 0.8560 0.8570
526.901612 0.8590 0.8610 0.8640 0.8660 0.8680
533.442908 0.8690 0.8720 0.8730 0.8740 0.8750
539.984203 0.8770 0.8810 0.8820 0.8850 0.8860
546.525498 0.8900 0.8910 0.8920 0.8950 0.9000
553.066794 0.9030 0.9040 0.9060 0.9060 0.9060
559.608089 0.9070 0.9080 0.9080 0.9080 0.9080
566.149384 0.9090 0.9110 0.9110 0.9110 0.9120
572.690680 0.9120 0.9120 0.9120 0.9130 0.9130
579.231975 0.9130 0.9110 0.9110 0.9110 0.9110
585.773271 0.9110 0.9110 0.9110 0.9110 0.9120
592.314566 0.9120 0.9150 0.9150 0.9130 0.9130
598.855861 0.9120 0.9120 0.9130 0.9150 0.9160
605.397157 0.9160 0.9170 0.9170 0.9190 0.9200
611.938452 0.9200 0.9200 0.9200 0.9210 0.9210
618.479747 0.9210 0.9220 0.9220 0.9220 0.9220
625.021043 0.9240 0.9240 0.9250 0.9250 0.9280
631.562338 0.9290 0.9320 0.9340 0.9360 0.9380
638.103634 0.9380 0.9390 0.9390 0.9390 0.9410
644.644929 0.9420 0.9430 0.9450 0.9460 0.9490
651.186224 0.9490 0.9490 0.9500 0.9500 0.9500
657.727520 0.9500 0.9500 0.9500 0.9500 0.9500
664.268815 0.9490 0.9490 0.9460 0.9380 0.9330
670.810110 0.9380 0.9470 0.9490 0.9500 0.9500
677.351406 0.9500 0.9500 0.9500 0.9490 0.9490
683.892701 0.9490 0.9470 0.9470 0.9470 0.9470
690.433997 0.9470 0.9460 0.9460 0.9460 0.9460
696.975292 0.9460 0.9460 0.9450 0.9450 0.9450
703.516587 0.9450 0.9450 0.9450 0.9430 0.9430
710.057883 0.9430 0.9430 0.9420 0.9420 0.9420
716.599178 0.9420 0.9410 0.9390 0.9380 0.9380
723.140473 0.9370 0.9370 0.9360 0.9360 0.9340
729.681769 0.9340 0.9340 0.9340 0.9330 0.9330
736.223064 0.9320 0.9320 0.9300 0.9290 0.9290
742.764360 0.9290 0.9290 0.9290 0.9300 0.9300
749.305655 0.9290 0.9280 0.9280 0.9260 0.9260
755.846950 0.9260 0.9260 0.9250 0.9240 0.9210
762.388246 0.9200 0.9200 0.9190 0.9170 0.9160
768.929541 0.9150 0.9120 0.9120 0.9110 0.9090
775.470836 0.9080 0.9070 0.9060 0.9030 0.9020
782.012132 0.9000 0.9000 0.8990 0.8940 0.8910
788.553427 0.8900 0.8870 0.8850 0.8820 0.8790
795.094723 0.8750 0.8720 0.8700 0.8680 0.8620
801.636018 0.8590 0.8560 0.8530 0.8520 0.8520
808.177313 0.8510 0.8510 0.8520 0.8530 0.8530
814.718609 0.8560 0.8560 0.8570 0.8570 0.8590
821.259904 0.8610 0.8640 0.8690 0.8730 0.8750
827.801199 0.8790 0.8830 0.8860 0.8900 0.8910
834.342495 0.8950 0.9000 0.9020 0.9030 0.9060
840.883790 0.9070 0.9090 0.9110 0.9130 0.9170
847.425086 0.9170 0.9190 0.9200 0.9210 0.9240
853.966381 0.9250 0.9260 0.9280 0.9300 0.9300
860.507676 0.9320 0.9320 0.9330 0.9330 0.9330
867.048972 0.9340 0.9360 0.9360 0.9360 0.9360
873.590267 0.9340 0.9330 0.9320 0.9320 0.9330
880.131562 0.9330 0.9330 0.9330 0.9320 0.9320
886.672858 0.9300 0.9290 0.9290 0.9280 0.9280
893.214153 0.9260 0.9250 0.9240 0.9220 0.9210
899.755449 0.9190 0.9150 0.9090 0.9070 0.9040
906.296744 0.9020 0.8980 0.8890 0.8820 0.8780
912.838039 0.8730 0.8620 0.8530 0.8430 0.8320
919.379335 0.8210 0.8041 0.7871 0.7671 0.7511
925.920630 0.7360 0.7140 0.6990 0.6780 0.6600
932.461925 0.6480 0.6311 0.6211 0.6121 0.6031
939.003221 0.5970 0.5860 0.5790 0.5740 0.5700
945.544516 0.5670 0.5660 0.5660 0.5660 0.5700
952.085812 0.5790 0.5910 0.6050 0.6090 0.6220
958.627107 0.6350 0.6479 0.6629 0.6729 0.6849
965.168402 0.6980 0.7110 0.7230 0.7400 0.7550
971.709698 0.7789 0.7929 0.8049 0.8179 0.8279
978.250993 0.8350 0.8400 0.8450 0.8490 0.8510
984.792288 0.8520 0.8530 0.8550 0.8550 0.8550
991.333584 0.8530 0.8530 0.8510 0.8440 0.8400
997.874879 0.8390 0.8340 0.8300 0.8171 0.8051
1004.416175 0.8000 0.7910 0.7840 0.7760 0.7700
1010.957470 0.7660 0.7590 0.7550 0.7510 0.7500
1017.498765 0.7490 0.7490 0.7480 0.7480 0.7480
1024.040061 0.7490 0.7490 0.7490 0.7510 0.7540
1030.581356 0.7610 0.7620 0.7660 0.7700 0.7750
1037.122651 0.7800 0.7850 0.7910 0.7950 0.8000
1043.663947 0.8020 0.8060 0.8090 0.8120 0.8130
1050.205242 0.8150 0.8180 0.8220 0.8230 0.8250
1056.746538 0.8260 0.8260 0.8270 0.8270 0.8260
1063.287833 0.8250 0.8220 0.8190 0.8180 0.8150
1069.829128 0.8100 0.8040 0.8010 0.7950 0.7870
1076.370424 0.7780 0.7700 0.7630 0.7541 0.7490
1082.911719 0.7370 0.7310 0.7200 0.7100 0.7030
1089.453014 0.6990 0.6900 0.6850 0.6741 0.6680
1095.994310 0.6590 0.6480 0.6330 0.6210 0.6140
1102.535605 0.6030 0.5821 0.5661 0.5541 0.5490
1109.076901 0.5390 0.5230 0.5140 0.5090 0.5060
1115.618196 0.5050 0.5050 0.5030 0.5030 0.5030
1122.159491 0.5030 0.5050 0.5060 0.5070 0.5070
1128.700787 0.5100 0.5140 0.5239 0.5320 0.5489
1135.242082 0.5650 0.5800 0.5910 0.6010 0.6090
1141.783377 0.6130 0.6180 0.6220 0.6210 0.6170
1148.324673 0.6140 0.6100 0.6080 0.6040 0.5930
1154.865968 0.5910 0.5870 0.5830 0.5800 0.5790
1161.407264 0.5790 0.5790 0.5780 0.5780 0.5790
1167.948559 0.5790 0.5800 0.5830 0.5860 0.5920
1174.489854 0.6010 0.6050 0.6130 0.6210 0.6270
1181.031150 0.6380 0.6519 0.6639 0.6739 0.6819
1187.572445 0.7010 0.7080 0.7230 0.7320 0.7440
1194.113740 0.7550 0.7660 0.7799 0.7909 0.8009
1200.655036 0.8020 0.8100 0.8230 0.8340 0.8420
1207.196331 0.8440 0.8450 0.8490 0.8510 0.8520
1213.737627 0.8520 0.8530 0.8550 0.8550 0.8550
1220.278922 0.8550 0.8530 0.8520 0.8520 0.8520
1226.820217 0.8520 0.8510 0.8510 0.8490 0.8490
1233.361513 0.8490 0.8490 0.8490 0.8450 0.8440
1239.902808 0.8430 0.8420 0.8420 0.8420 0.8430
1246.444103 0.8430 0.8440 0.8440 0.8440 0.8450
1252.985399 0.8450 0.8450 0.8450 0.8450 0.8450
1259.526694 0.8450 0.8450 0.8450 0.8450 0.8470
1266.067990 0.8490 0.8510 0.8510 0.8530 0.8550
1272.609285 0.8560 0.8570 0.8570 0.8590 0.8590
1279.150580 0.8590 0.8590 0.8600 0.8600 0.8600
1285.691876 0.8600 0.8590 0.8590 0.8570 0.8560
1292.233171 0.8520 0.8510 0.8490 0.8440 0.8430
1298.774466 0.8400 0.8380 0.8320 0.8260 0.8210
1305.315762 0.8150 0.8100 0.8040 0.8010 0.7910
1311.857057 0.7830 0.7750 0.7700 0.7630 0.7541
1318.398353 0.7500 0.7410 0.7330 0.7230 0.7120
1324.939648 0.7020 0.6900 0.6800 0.6691 0.6521
1331.480943 0.6350 0.6220 0.6030 0.5900 0.5750
1338.022239 0.5650 0.5570 0.5500 0.5411 0.5331
1344.563534 0.5280 0.5240 0.5220 0.5190 0.5180
1351.104829 0.5180 0.5180 0.5180 0.5200 0.5220
1357.646125 0.5240 0.5270 0.5330 0.5440 0.5530
1364.187420 0.5650 0.5750 0.5869 0.5969 0.6010
1370.728716 0.6090 0.6140 0.6220 0.6260 0.6300
1377.270011 0.6350 0.6390 0.6400 0.6420 0.6420
1383.811306 0.6420 0.6390 0.6370 0.6350 0.6350
1390.352602 0.6340 0.6340 0.6350 0.6459 0.6510
1396.893897 0.6540 0.6600 0.6670 0.6690 0.6690
1403.435192 0.6680 0.6670 0.6650 0.6630 0.6610
1409.976488 0.6600 0.6590 0.6570 0.6520 0.6480
1416.517783 0.6470 0.6460 0.6440 0.6420 0.6390
1423.059079 0.6380 0.6370 0.6340 0.6300 0.6260
1429.600374 0.6250 0.6220 0.6210 0.6121 0.6120
1436.141669 0.6210 0.6210 0.6180 0.6170 0.6140
1442.682965 0.6090 0.6030 0.5970 0.5950 0.5791
1449.224260 0.5690 0.5630 0.5500 0.5260 0.5230
1455.765555 0.5270 0.5370 0.5479 0.5570 0.5620
1462.306851 0.5660 0.5730 0.5730 0.5740 0.5740
1468.848146 0.5750 0.5790 0.5860 0.5989 0.6099
1475.389442 0.6240 0.6470 0.6600 0.6730 0.6930
1481.930737 0.7040 0.7209 0.7339 0.7479 0.7569
1488.472032 0.7650 0.7760 0.7970 0.8040 0.8090
1495.013328 0.8120 0.8190 0.8250 0.8320 0.8399
1501.554623 0.8430 0.8360 0.8340 0.8340 0.8380
1508.095918 0.8490 0.8520 0.8600 0.8640 0.8660
1514.637214 0.8660 0.8680 0.8700 0.8700 0.8720
1521.178509 0.8730 0.8790 0.8860 0.8870 0.8870
1527.719805 0.8900 0.8920 0.8920 0.8920 0.8940
1534.261100 0.9000 0.9000 0.8940 0.8890 0.8900
1540.802395 0.8940 0.8950 0.9000 0.9020 0.9080
1547.343691 0.9090 0.9090 0.9110 0.9110 0.9080
1553.884986 0.9040 0.9040 0.9000 0.8910 0.8910
1560.426281 0.8990 0.9129 0.9150 0.9150 0.9150
1566.967577 0.9150 0.9130 0.9130 0.9160 0.9190
1573.508872 0.9190 0.9120 0.9070 0.9110 0.9170
1580.050168 0.9170 0.9170 0.9170 0.9190 0.9190
1586.591463 0.9170 0.9160 0.9150 0.9150 0.9130
1593.132758 0.9130 0.9130 0.9130 0.9130 0.9120
1599.674054 0.9120 0.9110 0.9110 0.9110 0.9110
1606.215349 0.9120 0.9120 0.9120 0.9120 0.9120
1612.756644 0.9110 0.9090 0.9070 0.9070 0.9040
1619.297940 0.9040 0.9040 0.9040 0.9040 0.9030
1625.839235 0.9020 0.9020 0.9040 0.9040 0.9040
1632.380531 0.9030 0.9020 0.8960 0.8920 0.9000
1638.921826 0.9020 0.9020 0.9020 0.9000 0.9000
1645.463121 0.8890 0.8870 0.8990 0.8990 0.8950
1652.004417 0.8830 0.8720 0.8720 0.8889 0.8900
1658.545712 0.8900 0.8870 0.8850 0.8820 0.8780
1665.087007 0.8770 0.8750 0.8730 0.8680 0.8610
1671.628303 0.8570 0.8520 0.8490 0.8400 0.8310
1678.169598 0.8280 0.8230 0.8101 0.8001 0.7871
1684.710894 0.7680 0.7570 0.7530 0.7400 0.7230
1691.252189 0.7011 0.6781 0.6541 0.6242 0.5962
1697.793484 0.5710 0.5540 0.5100 0.4850 0.4601
1704.334780 0.4301 0.3951 0.3701 0.3362 0.3012
1710.876075 0.2780 0.2530 0.2280 0.2020 0.1870
1717.417370 0.1681 0.1551 0.1431 0.1350 0.1271
1723.958666 0.1220 0.1160 0.1120 0.1100 0.1100
1730.499961 0.1120 0.1120 0.1130 0.1130 0.1170
1737.041257 0.1200 0.1240 0.1270 0.1370 0.1470
1743.582552 0.1550 0.1709 0.1949 0.2139 0.2289
1750.123847 0.2490 0.2890 0.3270 0.3739 0.4019
1756.665143 0.4319 0.4639 0.5277 0.5568 0.5828
1763.206438 0.6200 0.6470 0.6680 0.6930 0.7080
1769.747734 0.7329 0.7529 0.7659 0.7829 0.7979
1776.289029 0.8130 0.8250 0.8310 0.8390 0.8470
1782.830324 0.8510 0.8590 0.8600 0.8660 0.8730
1789.371620 0.8750 0.8770 0.8780 0.8810 0.8850
1795.912915 0.8910 0.8920 0.8940 0.8960 0.8980
1802.454210 0.8990 0.9020 0.9070 0.9090 0.9090
1808.995506 0.9090 0.9110 0.9110 0.9120 0.9150
1815.536801 0.9150 0.9160 0.9160 0.9160 0.9170
1822.078097 0.9190 0.9190 0.9190 0.9190 0.9190
1828.619392 0.9200 0.9210 0.9220 0.9220 0.9280
1835.160687 0.9290 0.9290 0.9290 0.9280 0.9250
1841.701983 0.9240 0.9210 0.9200 0.9210 0.9240
1848.243278 0.9260 0.9280 0.9290 0.9300 0.9300
1854.784573 0.9300 0.9300 0.9300 0.9300 0.9290
1861.325869 0.9290 0.9290 0.9290 0.9300 0.9300
1867.867164 0.9290 0.9280 0.9260 0.9280 0.9290
1874.408460 0.9290 0.9300 0.9300 0.9300 0.9300
1880.949755 0.9290 0.9290 0.9290 0.9280 0.9280
1887.491050 0.9280 0.9260 0.9290 0.9300 0.9320
1894.032346 0.9320 0.9290 0.9290 0.9290 0.9300
1900.573641 0.9320 0.9320 0.9320 0.9300 0.9300
1907.114936 0.9290 0.9290 0.9280 0.9280 0.9260
1913.656232 0.9260 0.9260 0.9260 0.9260 0.9260
1920.197527 0.9250 0.9250 0.9250 0.9250 0.9260
1926.738823 0.9260 0.9260 0.9260 0.9260 0.9260
1933.280118 0.9260 0.9250 0.9250 0.9250 0.9250
1939.821413 0.9240 0.9210 0.9200 0.9210 0.9240
1946.362709 0.9250 0.9250 0.9250 0.9250 0.9260
1952.904004 0.9260 0.9260 0.9260 0.9260 0.9250
1959.445299 0.9250 0.9250 0.9250 0.9250 0.9250
1965.986595 0.9260 0.9260 0.9260 0.9280 0.9280
1972.527890 0.9280 0.9290 0.9290 0.9290 0.9290
1979.069186 0.9280 0.9280 0.9260 0.9260 0.9260
1985.610481 0.9260 0.9260 0.9260 0.9260 0.9280
1992.151776 0.9280 0.9280 0.9280 0.9260 0.9260
1998.693072 0.9250 0.9240 0.9225 0.9210 0.9200
2005.234367 0.9190 0.9190 0.9190 0.9179 0.9170
2011.775662 0.9170 0.9170 0.9170 0.9170 0.9170
2018.316958 0.9169 0.9164 0.9160 0.9160 0.9159
2024.858253 0.9154 0.9150 0.9150 0.9150 0.9150
2031.399549 0.9150 0.9150 0.9150 0.9150 0.9151
2037.940844 0.9156 0.9160 0.9160 0.9160 0.9160
2044.482139 0.9160 0.9160 0.9160 0.9160 0.9160
2051.023435 0.9160 0.9160 0.9160 0.9162 0.9167
2057.564730 0.9170 0.9170 0.9170 0.9170 0.9170
2064.106025 0.9170 0.9170 0.9170 0.9170 0.9170
2070.647321 0.9170 0.9170 0.9170 0.9170 0.9168
2077.188616 0.9162 0.9160 0.9160 0.9157 0.9152
2083.729912 0.9150 0.9150 0.9144 0.9134 0.9130
2090.271207 0.9130 0.9130 0.9130 0.9130 0.9130
2096.812502 0.9139 0.9154 0.9160 0.9160 0.9160
2103.353798 0.9160 0.9160 0.9160 0.9156 0.9151
2109.895093 0.9150 0.9150 0.9150 0.9150 0.9150
2116.436388 0.9150 0.9150 0.9150 0.9150 0.9150
2122.977684 0.9150 0.9150 0.9150 0.9150 0.9150
2129.518979 0.9150 0.9150 0.9150 0.9150 0.9150
2136.060275 0.9150 0.9150 0.9155 0.9160 0.9165
2142.601570 0.9170 0.9170 0.9170 0.9165 0.9160
2149.142865 0.9160 0.9160 0.9160 0.9160 0.9160
2155.684161 0.9160 0.9160 0.9160 0.9160 0.9160
2162.225456 0.9160 0.9160 0.9155 0.9150 0.9150
2168.766751 0.9149 0.9139 0.9129 0.9124 0.9120
2175.308047 0.9120 0.9120 0.9120 0.9120 0.9120
2181.849342 0.9120 0.9120 0.9120 0.9120 0.9121
2188.390638 0.9126 0.9130 0.9130 0.9130 0.9130
2194.931933 0.9133 0.9143 0.9150 0.9150 0.9147
2201.473228 0.9137 0.9130 0.9130 0.9128 0.9123
2208.014524 0.9120 0.9120 0.9120 0.9120 0.9120
2214.555819 0.9120 0.9120 0.9120 0.9122 0.9127
2221.097114 0.9130 0.9130 0.9130 0.9130 0.9130
2227.638410 0.9130 0.9128 0.9122 0.9123 0.9128
2234.179705 0.9130 0.9130 0.9127 0.9122 0.9120
2240.721001 0.9120 0.9120 0.9120 0.9120 0.9120
2247.262296 0.9120 0.9120 0.9120 0.9120 0.9120
2253.803591 0.9120 0.9120 0.9120 0.9117 0.9111
2260.344887 0.9103 0.9093 0.9090 0.9090 0.9090
2266.886182 0.9090 0.9086 0.9081 0.9080 0.9080
2273.427477 0.9080 0.9080 0.9080 0.9080 0.9080
2279.968773 0.9080 0.9076 0.9071 0.9070 0.9070
2286.510068 0.9066 0.9060 0.9051 0.9041 0.9040
2293.051364 0.9040 0.9031 0.9021 0.9010 0.9000
2299.592659 0.8976 0.8951 0.8945 0.8940 0.8930
2306.133954 0.8920 0.8920 0.8920 0.8915 0.8910
2312.675250 0.8910 0.8910 0.8905 0.8900 0.8900
2319.216545 0.8899 0.8894 0.8889 0.8879 0.8870
2325.757840 0.8870 0.8872 0.8882 0.8890 0.8890
2332.299136 0.8890 0.8890 0.8891 0.8896 0.8901
2338.840431 0.8906 0.8914 0.8929 0.8940 0.8940
2345.381727 0.8934 0.8914 0.8894 0.8874 0.8858
2351.923022 0.8853 0.8847 0.8837 0.8833 0.8843
2358.464317 0.8854 0.8864 0.8874 0.8884 0.8892
2365.005613 0.8897 0.8902 0.8907 0.8917 0.8932
2371.546908 0.8949 0.8969 0.8982 0.8987 0.8990
2378.088203 0.8990 0.8990 0.8990 0.8993 0.8998
2384.629499 0.9000 0.9000 0.9005 0.9016 0.9023
2391.170794 0.9028 0.9030 0.9030 0.9030 0.9030
2397.712090 0.9033 0.9038 0.9040 0.9040 0.9040
2404.253385 0.9040 0.9040 0.9040 0.9040 0.9040
2410.794680 0.9040 0.9040 0.9040 0.9040 0.9040
2417.335976 0.9040 0.9040 0.9040 0.9040 0.9040
2423.877271 0.9040 0.9040 0.9040 0.9040 0.9036
2430.418566 0.9031 0.9030 0.9030 0.9030 0.9030
2436.959862 0.9030 0.9030 0.9030 0.9030 0.9030
2443.501157 0.9030 0.9025 0.9020 0.9020 0.9020
2450.042453 0.9020 0.9020 0.9020 0.9020 0.9020
2456.583748 0.9020 0.9020 0.9020 0.9020 0.9020
2463.125043 0.9020 0.9020 0.9020 0.9020 0.9020
2469.666339 0.9020 0.9020 0.9021 0.9026 0.9030
2476.207634 0.9030 0.9030 0.9030 0.9030 0.9030
2482.748929 0.9030 0.9030 0.9030 0.9030 0.9030
2489.290225 0.9030 0.9031 0.9036 0.9040 0.9040
2495.831520 0.9040 0.9040 0.9040 0.9040 0.9040
2502.372816 0.9040 0.9040 0.9040 0.9040 0.9040
2508.914111 0.9040 0.9040 0.9040 0.9040 0.9040
2515.455406 0.9040 0.9040 0.9040 0.9044 0.9054
2521.996702 0.9060 0.9060 0.9060 0.9060 0.9060
2528.537997 0.9060 0.9060 0.9060 0.9060 0.9060
2535.079292 0.9060 0.9060 0.9060 0.9060 0.9060
2541.620588 0.9060 0.9060 0.9060 0.9060 0.9060
2548.161883 0.9054 0.9044 0.9040 0.9040 0.9040
2554.703179 0.9040 0.9040 0.9040 0.9040 0.9040
2561.244474 0.9040 0.9040 0.9036 0.9031 0.9030
2567.785769 0.9030 0.9030 0.9030 0.9026 0.9021
2574.327065 0.9012 0.9002 0.9000 0.9000 0.9000
2580.868360 0.9000 0.9008 0.9019 0.9020 0.9020
2587.409655 0.9011 0.9001 0.9000 0.9000 0.9000
2593.950951 0.9000 0.9000 0.9000 0.9000 0.9000
2600.492246 0.9000 0.9000 0.8995 0.8990 0.8990
2607.033542 0.8990 0.8990 0.8990 0.8985 0.8980
2613.574837 0.8980 0.8980 0.8980 0.8980 0.8980
2620.116132 0.8980 0.8980 0.8980 0.8980 0.8980
2626.657428 0.8980 0.8980 0.8980 0.8980 0.8980
2633.198723 0.8981 0.8986 0.8990 0.8990 0.8989
2639.740018 0.8984 0.8978 0.8968 0.8959 0.8954
2646.281314 0.8949 0.8944 0.8937 0.8927 0.8920
2652.822609 0.8920 0.8920 0.8920 0.8920 0.8920
2659.363905 0.8920 0.8920 0.8918 0.8913 0.8908
2665.905200 0.8903 0.8900 0.8900 0.8898 0.8893
2672.446495 0.8890 0.8890 0.8890 0.8890 0.8890
2678.987791 0.8890 0.8885 0.8875 0.8870 0.8870
2685.529086 0.8867 0.8862 0.8857 0.8852 0.8844
2692.070381 0.8834 0.8830 0.8830 0.8827 0.8822
2698.611677 0.8820 0.8820 0.8820 0.8820 0.8820
2705.152972 0.8820 0.8820 0.8820 0.8817 0.8812
2711.694268 0.8810 0.8810 0.8803 0.8793 0.8786
2718.235563 0.8781 0.8769 0.8754 0.8742 0.8732
2724.776858 0.8718 0.8703 0.8696 0.8691 0.8677
2731.318154 0.8662 0.8656 0.8651 0.8637 0.8622
2737.859449 0.8616 0.8611 0.8606 0.8600 0.8595
2744.400744 0.8590 0.8590 0.8590 0.8581 0.8571
2750.942040 0.8570 0.8570 0.8570 0.8570 0.8570
2757.483335 0.8570 0.8580 0.8590 0.8595 0.8600
2764.024631 0.8600 0.8600 0.8595 0.8589 0.8579
2770.565926 0.8570 0.8565 0.8558 0.8543 0.8529
2777.107221 0.8524 0.8518 0.8503 0.8488 0.8478
2783.648517 0.8467 0.8452 0.8438 0.8428 0.8413
2790.189812 0.8383 0.8355 0.8335 0.8318 0.8307
2796.731107 0.8293 0.8268 0.8242 0.8212 0.8181
2803.272403 0.8151 0.8122 0.8097 0.8066 0.8026
2809.813698 0.7995 0.7979 0.7959 0.7929 0.7902
2816.354994 0.7882 0.7852 0.7806 0.7767 0.7737
2822.896289 0.7709 0.7684 0.7657 0.7626 0.7587
2829.437584 0.7535 0.7502 0.7487 0.7462 0.7427
2835.978880 0.7389 0.7348 0.7305 0.7260 0.7212
2842.520175 0.7161 0.7108 0.7053 0.6994 0.6934
2849.061470 0.6867 0.6797 0.6726 0.6656 0.6569
2855.602766 0.6472 0.6376 0.6280 0.6167 0.6046
2862.144061 0.5915 0.5779 0.5639 0.5498 0.5309
2868.685357 0.5103 0.5001 0.4936 0.4863 0.4787
2875.226652 0.4653 0.4502 0.4386 0.4281 0.4153
2881.767947 0.4021 0.3889 0.3758 0.3632 0.3506
2888.309243 0.3411 0.3320 0.3256 0.3196 0.3163
2894.850538 0.3132 0.3093 0.3053 0.3017 0.2982
2901.391833 0.2947 0.2911 0.2881 0.2851 0.2830
2907.933129 0.2810 0.2800 0.2789 0.2769 0.2749
2914.474424 0.2729 0.2710 0.2705 0.2700 0.2700
2921.015720 0.2698 0.2678 0.2655 0.2610 0.2562
2927.557015 0.2497 0.2424 0.2303 0.2194 0.2153
2934.098310 0.2119 0.2114 0.2109 0.2104 0.2097
2940.639606 0.2082 0.2070 0.2070 0.2065 0.2045
2947.180901 0.2018 0.1973 0.1936 0.1921 0.1910
2953.722196 0.1910 0.1908 0.1903 0.1895 0.1880
2960.263492 0.1857 0.1822 0.1783 0.1738 0.1688
2966.804787 0.1633 0.1582 0.1536 0.1508 0.1503
2973.346083 0.1502 0.1507 0.1524 0.1554 0.1584
2979.887378 0.1614 0.1649 0.1690 0.1760 0.1862
2986.428673 0.1977 0.2103 0.2248 0.2409 0.2585
2992.969969 0.2771 0.2975 0.3191 0.3420 0.3656
2999.511264 0.3893 0.4130 0.4507 0.4970 0.5261
3006.052559 0.5453 0.5625 0.5786 0.5942 0.6095
3012.593855 0.6232 0.6363 0.6490 0.6616 0.6724
3019.135150 0.6825 0.6918 0.7008 0.7091 0.7172
3025.676446 0.7245 0.7315 0.7378 0.7438 0.7487
3032.217741 0.7532 0.7573 0.7613 0.7646 0.7676
3038.759036 0.7728 0.7784 0.7830 0.7876 0.7894
3045.300332 0.7909 0.7933 0.7958 0.7969 0.7979
3051.841627 0.7994 0.8009 0.8029 0.8050 0.8075
3058.382922 0.8100 0.8120 0.8140 0.8155 0.8170
3064.924218 0.8175 0.8180 0.8180 0.8180 0.8185
3071.465513 0.8191 0.8201 0.8211 0.8216 0.8222
3078.006809 0.8243 0.8261 0.8271 0.8280 0.8280
3084.548104 0.8282 0.8292 0.8300 0.8300 0.8300
3091.089399 0.8300 0.8300 0.8300 0.8300 0.8300
3097.630695 0.8301 0.8306 0.8311 0.8316 0.8324
3104.171990 0.8340 0.8352 0.8357 0.8363 0.8373
3110.713286 0.8380 0.8380 0.8382 0.8387 0.8390
3117.254581 0.8390 0.8392 0.8397 0.8400 0.8400
3123.795876 0.8400 0.8400 0.8405 0.8415 0.8420
3130.337172 0.8420 0.8420 0.8420 0.8420 0.8420
3136.878467 0.8420 0.8420 0.8415 0.8404 0.8400
3143.419762 0.8400 0.8400 0.8400 0.8400 0.8400
3149.961058 0.8406 0.8416 0.8420 0.8420 0.8420
3156.502353 0.8420 0.8420 0.8420 0.8420 0.8420
3163.043649 0.8423 0.8428 0.8434 0.8439 0.8451
3169.584944 0.8466 0.8470 0.8470 0.8474 0.8479
3176.126239 0.8480 0.8480 0.8484 0.8489 0.8498
3182.667535 0.8508 0.8510 0.8510 0.8514 0.8519
3189.208830 0.8533 0.8548 0.8559 0.8569 0.8579
3195.750125 0.8589 0.8595 0.8600 0.8605 0.8610
3202.291421 0.8610 0.8610 0.8615 0.8620 0.8630
3208.832716 0.8640 0.8645 0.8650 0.8655 0.8660
3215.374012 0.8670 0.8680 0.8680 0.8680 0.8685
3221.915307 0.8690 0.8690 0.8690 0.8690 0.8691
3228.456602 0.8696 0.8700 0.8700 0.8700 0.8700
3234.997898 0.8700 0.8700 0.8700 0.8700 0.8700
3241.539193 0.8700 0.8700 0.8700 0.8700 0.8700
3248.080488 0.8703 0.8713 0.8721 0.8726 0.8731
3254.621784 0.8737 0.8740 0.8740 0.8742 0.8747
3261.163079 0.8750 0.8750 0.8750 0.8750 0.8748
3267.704375 0.8743 0.8738 0.8733 0.8730 0.8730
3274.245670 0.8732 0.8737 0.8742 0.8747 0.8755
3280.786965 0.8765 0.8770 0.8770 0.8770 0.8770
3287.328261 0.8770 0.8770 0.8773 0.8778 0.8780
3293.869556 0.8780 0.8780 0.8780 0.8780 0.8780
3300.410851 0.8777 0.8772 0.8764 0.8754 0.8747
3306.952147 0.8742 0.8737 0.8732 0.8730 0.8730
3313.493442 0.8730 0.8730 0.8734 0.8739 0.8744
3320.034738 0.8749 0.8750 0.8750 0.8758 0.8768
3326.576033 0.8774 0.8779 0.8780 0.8780 0.8780
3333.117328 0.8780 0.8776 0.8771 0.8757 0.8742
3339.658624 0.8736 0.8731 0.8730 0.8730 0.8734
3346.199919 0.8739 0.8740 0.8740 0.8745 0.8750
3352.741214 0.8750 0.8750 0.8750 0.8750 0.8745
3359.282510 0.8740 0.8740 0.8740 0.8740 0.8740
3365.823805 0.8740 0.8740 0.8735 0.8730 0.8730
3372.365101 0.8730 0.8725 0.8719 0.8709 0.8700
3378.906396 0.8700 0.8699 0.8694 0.8690 0.8690
3385.447691 0.8689 0.8684 0.8680 0.8680 0.8678
3391.988987 0.8668 0.8659 0.8654 0.8650 0.8650
3398.530282 0.8649 0.8644 0.8634 0.8614 0.8600
3405.071577 0.8600 0.8595 0.8580 0.8567 0.8557
3411.612873 0.8545 0.8530 0.8518 0.8513 0.8506
3418.154168 0.8496 0.8488 0.8483 0.8470 0.8445
3424.695464 0.8428 0.8423 0.8413 0.8398 0.8390
3431.236759 0.8390 0.8383 0.8368 0.8360 0.8360
3437.778054 0.8357 0.8352 0.8353 0.8358 0.8376
3444.319350 0.8407 0.8426 0.8436 0.8449 0.8464
3450.860645 0.8473 0.8478 0.8489 0.8505 0.8513
3457.401940 0.8518 0.8530 0.8545 0.8557 0.8567
3463.943236 0.8584 0.8604 0.8624 0.8644 0.8654
3470.484531 0.8659 0.8667 0.8677 0.8684 0.8689
3477.025827 0.8694 0.8699 0.8700 0.8700 0.8708
3483.567122 0.8718 0.8724 0.8729 0.8730 0.8730
3490.108417 0.8730 0.8730 0.8717 0.8702 0.8700
3496.649713 0.8700 0.8700 0.8700 0.8700 0.8700
3503.191008 0.8700 0.8700 0.8715 0.8730 0.8735
3509.732303 0.8740 0.8740 0.8740 0.8730 0.8720
3516.273599 0.8704 0.8690 0.8690 0.8690 0.8695
3522.814894 0.8701 0.8711 0.8720 0.8720 0.8720
3529.356190 0.8720 0.8719 0.8709 0.8699 0.8694
3535.897485 0.8689 0.8684 0.8680 0.8680 0.8680
3542.438780 0.8680 0.8680 0.8680 0.8681 0.8686
3548.980076 0.8690 0.8690 0.8685 0.8665 0.8644
3555.521371 0.8624 0.8607 0.8597 0.8593 0.8603
3562.062666 0.8617 0.8637 0.8655 0.8670 0.8682
3568.603962 0.8687 0.8690 0.8690 0.8688 0.8683
3575.145257 0.8674 0.8659 0.8644 0.8628 0.8615
3581.686553 0.8605 0.8605 0.8615 0.8630 0.8650
3588.227848 0.8665 0.8675 0.8680 0.8680 0.8680
3594.769143 0.8680 0.8674 0.8664 0.8657 0.8652
3601.310439 0.8647 0.8642 0.8631 0.8616 0.8607
3607.851734 0.8602 0.8603 0.8608 0.8613 0.8618
3614.393029 0.8613 0.8603 0.8575 0.8540 0.8523
3620.934325 0.8513 0.8514 0.8519 0.8524 0.8529
3627.475620 0.8545 0.8565 0.8570 0.8570 0.8566
3634.016916 0.8561 0.8543 0.8523 0.8499 0.8474
3640.558211 0.8457 0.8442 0.8436 0.8431 0.8434
3647.099506 0.8440 0.8445 0.8450 0.8459 0.8469
3653.640802 0.8475 0.8480 0.8480 0.8480 0.8475
3660.182097 0.8470 0.8455 0.8440 0.8435 0.8430
3666.723392 0.8414 0.8400 0.8411 0.8421 0.8447
3673.264688 0.8472 0.8502 0.8531 0.8546 0.8561
3679.805983 0.8566 0.8571 0.8581 0.8590 0.8590
3686.347279 0.8591 0.8596 0.8600 0.8600 0.8601
3692.888574 0.8606 0.8611 0.8616 0.8620 0.8620
3699.429869 0.8620 0.8620 0.8620 0.8620 0.8620
3705.971165 0.8620 0.8619 0.8614 0.8608 0.8603
3712.512460 0.8600 0.8600 0.8600 0.8600 0.8598
3719.053755 0.8593 0.8590 0.8590 0.8586 0.8576
3725.595051 0.8568 0.8563 0.8558 0.8553 0.8545
3732.136346 0.8535 0.8528 0.8523 0.8518 0.8512
3738.677642 0.8513 0.8518 0.8528 0.8543 0.8553
3745.218937 0.8558 0.8568 0.8584 0.8593 0.8598
3751.760232 0.8603 0.8608 0.8610 0.8610 0.8610
3758.301528 0.8610 0.8610 0.8610 0.8613 0.8618
3764.842823 0.8620 0.8620 0.8620 0.8620 0.8627
3771.384118 0.8637 0.8640 0.8640 0.8640 0.8640
3777.925414 0.8640 0.8640 0.8640 0.8640 0.8640
3784.466709 0.8640 0.8640 0.8640 0.8640 0.8640
3791.008005 0.8640 0.8640 0.8640 0.8640 0.8640
3797.549300 0.8640 0.8631 0.8621 0.8620 0.8620
3804.090595 0.8620 0.8620 0.8620 0.8620 0.8615
3810.631891 0.8610 0.8610 0.8610 0.8610 0.8610
3817.173186 0.8605 0.8600 0.8600 0.8600 0.8600
3823.714481 0.8600 0.8595 0.8590 0.8590 0.8590
3830.255777 0.8590 0.8589 0.8579 0.8569 0.8564
3836.797072 0.8557 0.8537 0.8517 0.8496 0.8475
3843.338368 0.8450 0.8427 0.8412 0.8404 0.8419
3849.879663 0.8436 0.8461 0.8484 0.8499 0.8511
3856.420958 0.8516 0.8521 0.8527 0.8533 0.8543
3862.962254 0.8550 0.8550 0.8550 0.8550 0.8550
3869.503549 0.8550 0.8546 0.8536 0.8530 0.8530
3876.044844 0.8530 0.8530 0.8528 0.8523 0.8518
3882.586140 0.8513 0.8505 0.8495 0.8490 0.8490
3889.127435 0.8488 0.8482 0.8477 0.8472 0.8464
3895.668731 0.8454 0.8456 0.8466 0.8473 0.8478
3902.210026 0.8480 0.8480 0.8483 0.8488 0.8490
3908.751321 0.8490 0.8490 0.8490 0.8497 0.8507
3915.292617 0.8513 0.8518 0.8520 0.8520 0.8520
3921.833912 0.8520 0.8520 0.8520 0.8520 0.8520
3928.375207 0.8524 0.8529 0.8530 0.8530 0.8530
3934.916503 0.8530 0.8530 0.8530 0.8530 0.8530
3941.457798 0.8530 0.8530 0.8530 0.8530 0.8530
3947.999094 0.8530 0.8530 0.8530 0.8530 0.8530
3954.540389 0.8530 0.8530 0.8525 0.8520 0.8520
3961.081684 0.8520 0.8520 0.8520 0.8520 0.8520
3967.622980 0.8515 0.8510 0.8510 0.8510 0.8510
3974.164275 0.8510 0.8510 0.8510 0.8510 0.8510
3980.705570 0.8510 0.8509 0.8499 0.8490 0.8490
3987.246866 0.8490 0.8490 0.8489 0.8484 0.8480
3993.788161 0.8480 0.8480 0.8480
##END=
