##TITLE=1,3-DIBROMO-2-PROPANOL
$$ E.K. (W.L.)
##JCAMP-DX=4.24
##DATA TYPE=INFRARED SPECTRUM
##CLASS=COBLENTZ
##ORIGIN=WYANDOTTE CHEMICALS CORP., WYANDOTTE, MICHIGAN, USA
##OWNER=COBLENTZ SOCIETY
Collection (C) 2018 copyright by the U.S. Secretary of Commerce
on behalf of the United States of America. All rights reserved.
##DATE=Not specified, most likely prior to 1970
##CAS REGISTRY NO=96-21-9
##MOLFORM=C3 H6 Br2 O
##MP=89-90 C AT 10 mmHg
##SOURCE REFERENCE=COBLENTZ NO. 441
##$NIST SOURCE=COBLENTZ
##$NIST IMAGE=cob441
##SPECTROMETER/DATA SYSTEM=Not specified, most likely a prism, grating, or hybrid spectrometer.
##STATE=LIQUID
##PATH LENGTH=0.003 CM
##SAMPLING PROCEDURE=TRANSMISSION
##RESOLUTION=4
##DATA PROCESSING=DIGITIZED BY NIST FROM HARD COPY
##XUNITS=MICROMETERS
##YUNITS=TRANSMITTANCE
##XFACTOR=1.000000
##YFACTOR=1
##DELTAX=000.006643
##FIRSTX=2.024
##LASTX=15.9863
##FIRSTY=0.978
##MAXX=15.9863
##MINX=2.024
##MAXY=0.988
##MINY=0.038
##NPOINTS=2103
##XYDATA=(X++(Y..Y))
2.024000 0.9780 0.9780 0.9780 0.9780 0.9780
2.057228 0.9790 0.9790 0.9790 0.9790 0.9790
2.090000 0.9790 0.9790 0.9810 0.9830 0.9830
2.123228 0.9840 0.9860 0.9880 0.9880 0.9840
2.156000 0.9790 0.9730 0.9610 0.9490 0.9480
2.189228 0.9490 0.9510 0.9560 0.9610 0.9680
2.223000 0.9730 0.9740 0.9740 0.9740 0.9740
2.256228 0.9730 0.9660 0.9590 0.9580 0.9580
2.289000 0.9560 0.9540 0.9530 0.9530 0.9530
2.322228 0.9580 0.9630 0.9630 0.9630 0.9640
2.356000 0.9660 0.9680 0.9710 0.9730 0.9740
2.389228 0.9760 0.9730 0.9690 0.9690 0.9690
2.422000 0.9690 0.9690 0.9680 0.9660 0.9640
2.455228 0.9630 0.9590 0.9560 0.9540 0.9530
2.489000 0.9530 0.9540 0.9540 0.9530 0.9530
2.522228 0.9540 0.9540 0.9530 0.9510 0.9480
2.555000 0.9460 0.9460 0.9460 0.9490 0.9510
2.588228 0.9530 0.9540 0.9560 0.9560 0.9560
2.621000 0.9580 0.9580 0.9590 0.9590 0.9590
2.654228 0.9580 0.9580 0.9560 0.9540 0.9510
2.688000 0.9490 0.9440 0.9360 0.9230 0.9080
2.721228 0.8930 0.8760 0.8490 0.8130 0.7940
2.754000 0.7690 0.7390 0.6670 0.6270 0.5720
2.787228 0.5120 0.4640 0.4140 0.3400 0.2830
2.821000 0.2450 0.2180 0.1960 0.1830 0.1750
2.854228 0.1680 0.1650 0.1580 0.1500 0.1410
2.887000 0.1310 0.1230 0.1160 0.1100 0.1030
2.920228 0.0950 0.0900 0.0860 0.0810 0.0780
2.954000 0.0750 0.0730 0.0700 0.0680 0.0660
2.987228 0.0680 0.0710 0.0760 0.0830 0.0900
3.020000 0.1000 0.1130 0.1330 0.1460 0.1600
3.053228 0.1750 0.1960 0.2230 0.2400 0.2520
3.086000 0.2870 0.3080 0.3280 0.3420 0.3820
3.119228 0.4040 0.4250 0.4500 0.4700 0.4900
3.153000 0.5390 0.5750 0.6020 0.6190 0.6240
3.186228 0.6440 0.6620 0.6810 0.7010 0.7190
3.219000 0.7370 0.7540 0.7610 0.7740 0.7770
3.252228 0.7790 0.7790 0.7790 0.7760 0.7420
3.286000 0.7190 0.7170 0.7210 0.7420 0.7590
3.319228 0.7670 0.7770 0.7770 0.6240 0.5450
3.352000 0.5450 0.5190 0.5150 0.5170 0.6110
3.385228 0.6370 0.6640 0.6910 0.7190 0.7270
3.418000 0.7270 0.7270 0.7020 0.6990 0.6970
3.451228 0.6970 0.6970 0.6970 0.7010 0.7140
3.485000 0.7210 0.7270 0.7340 0.7410 0.7470
3.518228 0.7540 0.7620 0.7820 0.7940 0.8040
3.551000 0.8140 0.8260 0.8360 0.8430 0.8580
3.584228 0.8630 0.8690 0.8780 0.8810 0.8830
3.618000 0.8840 0.8840 0.8860 0.8860 0.8860
3.651228 0.8860 0.8860 0.8860 0.8860 0.8860
3.684000 0.8860 0.8860 0.8860 0.8860 0.8860
3.717228 0.8860 0.8860 0.8860 0.8880 0.8880
3.751000 0.8890 0.8930 0.8960 0.8960 0.8930
3.784228 0.8860 0.8830 0.8830 0.8890 0.8960
3.817000 0.8960 0.8980 0.8980 0.8990 0.9010
3.850228 0.9030 0.9030 0.9040 0.9060 0.9110
3.883000 0.9130 0.9130 0.9140 0.9160 0.9160
3.916228 0.9180 0.9180 0.9190 0.9210 0.9210
3.950000 0.9230 0.9230 0.9240 0.9240 0.9260
3.983228 0.9260 0.9280 0.9280 0.9290 0.9310
4.016000 0.9310 0.9310 0.9290 0.9290 0.9280
4.049228 0.9280 0.9260 0.9260 0.9260 0.9240
4.083000 0.9210 0.9190 0.9190 0.9210 0.9230
4.116228 0.9240 0.9240 0.9240 0.9240 0.9260
4.149000 0.9260 0.9280 0.9280 0.9290 0.9310
4.182228 0.9310 0.9330 0.9330 0.9340 0.9340
4.216000 0.9380 0.9390 0.9410 0.9410 0.9430
4.249228 0.9440 0.9480 0.9490 0.9490 0.9510
4.282000 0.9510 0.9510 0.9510 0.9510 0.9510
4.315228 0.9530 0.9540 0.9540 0.9540 0.9540
4.348000 0.9540 0.9540 0.9540 0.9540 0.9560
4.381228 0.9560 0.9580 0.9590 0.9590 0.9590
4.415000 0.9590 0.9590 0.9590 0.9580 0.9530
4.448228 0.9460 0.9410 0.9340 0.9330 0.9330
4.481000 0.9330 0.9340 0.9380 0.9390 0.9410
4.514228 0.9430 0.9460 0.9490 0.9530 0.9560
4.548000 0.9580 0.9610 0.9630 0.9630 0.9630
4.581228 0.9630 0.9640 0.9640 0.9660 0.9680
4.614000 0.9710 0.9730 0.9760 0.9760 0.9760
4.647228 0.9760 0.9760 0.9740 0.9690 0.9680
4.681000 0.9680 0.9680 0.9680 0.9680 0.9690
4.714228 0.9690 0.9690 0.9690 0.9710 0.9730
4.747000 0.9740 0.9760 0.9780 0.9760 0.9760
4.780228 0.9760 0.9730 0.9730 0.9710 0.9710
4.813000 0.9710 0.9690 0.9690 0.9680 0.9690
4.846228 0.9690 0.9690 0.9680 0.9690 0.9710
4.880000 0.9710 0.9690 0.9680 0.9660 0.9660
4.913228 0.9640 0.9630 0.9630 0.9640 0.9660
4.946000 0.9680 0.9690 0.9730 0.9740 0.9740
4.979228 0.9740 0.9740 0.9760 0.9760 0.9780
5.013000 0.9780 0.9780 0.9760 0.9740 0.9740
5.046228 0.9740 0.9730 0.9730 0.9730 0.9730
5.079000 0.9780 0.9780 0.9780 0.9780 0.9780
5.112228 0.9760 0.9740 0.9730 0.9710 0.9680
5.146000 0.9660 0.9680 0.9680 0.9690 0.9710
5.179228 0.9730 0.9730 0.9730 0.9730 0.9730
5.212000 0.9710 0.9690 0.9690 0.9690 0.9710
5.245228 0.9710 0.9690 0.9660 0.9660 0.9680
5.278000 0.9740 0.9740 0.9740 0.9730 0.9710
5.311228 0.9690 0.9690 0.9680 0.9660 0.9660
5.345000 0.9660 0.9640 0.9660 0.9680 0.9680
5.378228 0.9680 0.9690 0.9680 0.9710 0.9710
5.411000 0.9730 0.9760 0.9760 0.9760 0.9760
5.444228 0.9740 0.9690 0.9630 0.9610 0.9610
5.478000 0.9610 0.9640 0.9680 0.9680 0.9690
5.511228 0.9710 0.9730 0.9740 0.9740 0.9740
5.544000 0.9740 0.9730 0.9730 0.9740 0.9730
5.577228 0.9710 0.9690 0.9680 0.9680 0.9680
5.611000 0.9660 0.9660 0.9660 0.9660 0.9660
5.644228 0.9640 0.9640 0.9590 0.9560 0.9510
5.677000 0.9490 0.9460 0.9440 0.9390 0.9310
5.710228 0.9230 0.9130 0.9010 0.8930 0.8860
5.743000 0.8830 0.8690 0.8480 0.8440 0.8440
5.776228 0.8460 0.8610 0.8690 0.8730 0.8730
5.810000 0.8680 0.8680 0.8690 0.8810 0.8860
5.843228 0.8890 0.8940 0.8990 0.9040 0.9090
5.876000 0.9160 0.9240 0.9310 0.9360 0.9410
5.909228 0.9440 0.9440 0.9430 0.9390 0.9360
5.943000 0.9340 0.9340 0.9360 0.9360 0.9380
5.976228 0.9380 0.9380 0.9360 0.9340 0.9330
6.009000 0.9330 0.9290 0.9260 0.9230 0.9180
6.042228 0.9130 0.9090 0.9040 0.8990 0.8930
6.075000 0.8890 0.8840 0.8810 0.8780 0.8760
6.108228 0.8730 0.8710 0.8710 0.8710 0.8730
6.142000 0.8760 0.8790 0.8860 0.8910 0.8960
6.175228 0.8990 0.9030 0.9090 0.9140 0.9210
6.208000 0.9240 0.9280 0.9260 0.9280 0.9310
6.241228 0.9340 0.9360 0.9380 0.9380 0.9390
6.275000 0.9390 0.9380 0.9330 0.9330 0.9330
6.308228 0.9330 0.9330 0.9330 0.9330 0.9330
6.341000 0.9340 0.9340 0.9380 0.9360 0.9340
6.374228 0.9330 0.9290 0.9260 0.9260 0.9280
6.408000 0.9280 0.9310 0.9310 0.9310 0.9280
6.441228 0.9240 0.9210 0.9190 0.9190 0.9190
6.474000 0.9190 0.9190 0.9240 0.9240 0.9230
6.507228 0.9180 0.9140 0.9130 0.9110 0.9090
6.540000 0.9090 0.9080 0.9080 0.9080 0.9060
6.573228 0.9060 0.9040 0.9010 0.8960 0.8940
6.607000 0.8930 0.8930 0.8910 0.8910 0.8880
6.640228 0.8840 0.8810 0.8760 0.8710 0.8630
6.673000 0.8590 0.8530 0.8510 0.8480 0.8430
6.706228 0.8380 0.8340 0.8330 0.8280 0.8180
6.740000 0.8060 0.7890 0.7720 0.7560 0.7410
6.773228 0.7290 0.7190 0.7060 0.6990 0.6960
6.806000 0.6790 0.6660 0.6270 0.6120 0.5990
6.839228 0.5870 0.5740 0.5590 0.5440 0.5240
6.873000 0.5020 0.4890 0.4740 0.4550 0.4190
6.906228 0.3920 0.3580 0.3080 0.2520 0.1980
6.939000 0.1580 0.1410 0.1150 0.0950 0.0800
6.972228 0.0710 0.0660 0.0630 0.0660 0.0960
7.005000 0.1110 0.1350 0.1560 0.1780 0.2000
7.038228 0.2200 0.2380 0.2550 0.2680 0.2780
7.072000 0.2850 0.2920 0.3000 0.3080 0.3180
7.105228 0.3280 0.3400 0.3450 0.3470 0.3480
7.138000 0.3500 0.3520 0.3520 0.3520 0.3530
7.171228 0.3530 0.3520 0.3520 0.3520 0.3520
7.205000 0.3520 0.3520 0.3500 0.3500 0.3500
7.238228 0.3530 0.3720 0.3920 0.4100 0.4400
7.271000 0.4620 0.4770 0.4920 0.5240 0.5400
7.304228 0.5550 0.5640 0.5700 0.5740 0.5740
7.338000 0.5720 0.5670 0.5640 0.5570 0.5470
7.371228 0.5320 0.5100 0.4950 0.4790 0.4550
7.404000 0.4500 0.4370 0.4250 0.4150 0.4070
7.437228 0.4040 0.4070 0.4120 0.4190 0.4300
7.470000 0.4370 0.4470 0.4550 0.4640 0.4670
7.503228 0.4690 0.4690 0.4700 0.4700 0.4700
7.537000 0.4700 0.4650 0.4590 0.4550 0.4540
7.570228 0.4540 0.4520 0.4490 0.4440 0.4320
7.603000 0.4220 0.4190 0.4070 0.4040 0.3980
7.636228 0.3950 0.3880 0.3770 0.3680 0.3600
7.670000 0.3530 0.3450 0.3370 0.3300 0.3230
7.703228 0.3170 0.3100 0.3030 0.2980 0.2920
7.736000 0.2870 0.2800 0.2730 0.2650 0.2620
7.769228 0.2570 0.2530 0.2480 0.2430 0.2400
7.803000 0.2350 0.2280 0.2220 0.2130 0.2020
7.836228 0.1880 0.1860 0.1850 0.1850 0.1860
7.869000 0.1960 0.2020 0.2100 0.2220 0.2330
7.902228 0.2450 0.2500 0.2530 0.2530 0.2550
7.935000 0.2550 0.2500 0.2450 0.2380 0.2320
7.968228 0.2250 0.2170 0.2080 0.2000 0.1900
8.002000 0.1810 0.1710 0.1630 0.1550 0.1530
8.035228 0.1510 0.1530 0.1580 0.1630 0.1660
8.068000 0.1730 0.1760 0.1810 0.1810 0.1830
8.101228 0.1830 0.1830 0.1830 0.1830 0.1810
8.135000 0.1750 0.1710 0.1660 0.1600 0.1510
8.168228 0.1480 0.1510 0.1530 0.1610 0.1700
8.201000 0.1810 0.1950 0.2080 0.2250 0.2420
8.234228 0.2580 0.2750 0.2920 0.3080 0.3250
8.268000 0.3380 0.3520 0.3620 0.3700 0.3800
8.301228 0.3850 0.3850 0.3870 0.3870 0.3830
8.334000 0.3750 0.3670 0.3480 0.3350 0.3130
8.367228 0.3080 0.2970 0.2880 0.2820 0.2730
8.400000 0.2680 0.2680 0.2680 0.2700 0.2780
8.433228 0.2820 0.2850 0.2920 0.2920 0.2920
8.467000 0.2950 0.3000 0.3030 0.3100 0.3150
8.500228 0.3200 0.3270 0.3320 0.3380 0.3450
8.533000 0.3530 0.3670 0.3820 0.4020 0.4120
8.566228 0.4220 0.4300 0.4370 0.4440 0.4500
8.600000 0.4550 0.4600 0.4650 0.4690 0.4740
8.633228 0.4770 0.4800 0.4840 0.4840 0.4850
8.666000 0.4850 0.4840 0.4840 0.4820 0.4820
8.699228 0.4800 0.4770 0.4750 0.4750 0.4750
8.732000 0.4800 0.4870 0.4900 0.4920 0.4940
8.765228 0.4970 0.5020 0.5040 0.5020 0.4990
8.799000 0.4940 0.4890 0.4750 0.4570 0.4350
8.832228 0.4150 0.3950 0.3750 0.3600 0.3500
8.865000 0.3430 0.3350 0.3330 0.3320 0.3330
8.898228 0.3420 0.3550 0.3730 0.3920 0.4120
8.932000 0.4270 0.4440 0.4570 0.4670 0.4750
8.965228 0.4850 0.4850 0.4840 0.4840 0.4770
8.998000 0.4570 0.4350 0.4250 0.4000 0.3700
9.031228 0.3380 0.3130 0.2970 0.2680 0.2430
9.065000 0.2380 0.2300 0.2220 0.2120 0.2020
9.098228 0.1930 0.1850 0.1780 0.1750 0.1730
9.131000 0.1710 0.1680 0.1650 0.1630 0.1630
9.164228 0.1630 0.1650 0.1780 0.1830 0.1850
9.197000 0.1860 0.1930 0.2080 0.2170 0.2230
9.230228 0.2300 0.2370 0.2430 0.2500 0.2580
9.264000 0.2650 0.2730 0.2830 0.2930 0.3050
9.297228 0.3170 0.3220 0.3230 0.3250 0.3250
9.330000 0.3250 0.3250 0.3220 0.3070 0.2970
9.363228 0.2830 0.2700 0.2550 0.2380 0.2230
9.397000 0.2070 0.1900 0.1710 0.1600 0.1450
9.430228 0.1360 0.1260 0.1200 0.1130 0.1080
9.463000 0.1030 0.1000 0.0960 0.0960 0.1000
9.496228 0.1100 0.1160 0.1230 0.1260 0.1330
9.530000 0.1400 0.1500 0.1510 0.1530 0.1510
9.563228 0.1460 0.1410 0.1350 0.1300 0.1230
9.596000 0.1160 0.1080 0.1010 0.0950 0.0900
9.629228 0.0830 0.0780 0.0700 0.0610 0.0530
9.662000 0.0480 0.0460 0.0450 0.0410 0.0400
9.695228 0.0380 0.0380 0.0380 0.0380 0.0380
9.729000 0.0410 0.0410 0.0410 0.0410 0.0450
9.762228 0.0480 0.0530 0.0610 0.0760 0.1000
9.795000 0.1310 0.1460 0.1630 0.1830 0.2050
9.828228 0.2280 0.2520 0.2780 0.3050 0.3320
9.862000 0.3600 0.3870 0.4140 0.4390 0.4620
9.895228 0.4840 0.5220 0.5350 0.5500 0.5620
9.928000 0.5750 0.5850 0.5970 0.6090 0.6190
9.961228 0.6270 0.6370 0.6460 0.6560 0.6620
9.995000 0.6690 0.6740 0.6790 0.6790 0.6810
10.028228 0.6820 0.6870 0.6870 0.6890 0.6870
10.061000 0.6810 0.6770 0.6720 0.6710 0.6660
10.094228 0.6570 0.6490 0.6410 0.6310 0.6240
10.127000 0.6160 0.6110 0.6020 0.5970 0.5900
10.160228 0.5870 0.5840 0.5800 0.5770 0.5750
10.194000 0.5740 0.5750 0.5820 0.5870 0.5950
10.227228 0.6020 0.6110 0.6170 0.6240 0.6310
10.260000 0.6390 0.6470 0.6560 0.6640 0.6710
10.293228 0.6740 0.6770 0.6810 0.6840 0.6910
10.327000 0.6970 0.7070 0.7070 0.7140 0.7140
10.360228 0.7160 0.7190 0.7220 0.7260 0.7290
10.393000 0.7290 0.7310 0.7310 0.7320 0.7390
10.426228 0.7420 0.7460 0.7510 0.7570 0.7620
10.460000 0.7640 0.7660 0.7690 0.7720 0.7760
10.493228 0.7810 0.7820 0.7840 0.7860 0.7870
10.526000 0.7890 0.7910 0.7910 0.7970 0.7970
10.559228 0.7990 0.7990 0.8010 0.8010 0.8010
10.592000 0.8010 0.8010 0.7990 0.7970 0.7970
10.625228 0.7940 0.7920 0.7910 0.7860 0.7810
10.659000 0.7640 0.7490 0.7410 0.7340 0.7270
10.692228 0.7160 0.6970 0.6690 0.6590 0.6470
10.725000 0.6340 0.6160 0.6040 0.5950 0.5820
10.758228 0.5790 0.5790 0.5800 0.5920 0.6060
10.792000 0.6170 0.6360 0.6520 0.6690 0.6820
10.825228 0.6940 0.6990 0.7040 0.7070 0.7120
10.858000 0.7190 0.7220 0.7260 0.7240 0.7240
10.891228 0.7220 0.7210 0.7170 0.7140 0.7120
10.925000 0.7090 0.7070 0.7020 0.7020 0.7040
10.958228 0.7040 0.7060 0.7070 0.7110 0.7120
10.991000 0.7190 0.7210 0.7240 0.7270 0.7310
11.024228 0.7340 0.7390 0.7410 0.7410 0.7440
11.057000 0.7490 0.7510 0.7540 0.7590 0.7640
11.090228 0.7710 0.7770 0.7820 0.7840 0.7890
11.124000 0.7920 0.7970 0.8010 0.8010 0.8040
11.157228 0.8060 0.8080 0.8090 0.8090 0.8090
11.190000 0.8080 0.8080 0.8060 0.8060 0.8040
11.223228 0.8040 0.8040 0.8040 0.8060 0.8060
11.257000 0.8040 0.8040 0.8030 0.8030 0.8010
11.290228 0.7990 0.7920 0.7870 0.7860 0.7860
11.323000 0.7870 0.7870 0.7870 0.7870 0.7860
11.356228 0.7840 0.7840 0.7840 0.7820 0.7790
11.389000 0.7770 0.7740 0.7720 0.7710 0.7670
11.422228 0.7660 0.7620 0.7570 0.7440 0.7370
11.456000 0.7270 0.7210 0.7070 0.6990 0.6870
11.489228 0.6740 0.6620 0.6510 0.6420 0.6360
11.522000 0.6290 0.6240 0.6120 0.6040 0.5970
11.555228 0.5890 0.5870 0.5840 0.5820 0.5790
11.589000 0.5770 0.5750 0.5750 0.5740 0.5720
11.622228 0.5650 0.5650 0.5640 0.5640 0.5720
11.655000 0.5740 0.5770 0.5790 0.5790 0.5800
11.688228 0.5800 0.5800 0.5800 0.5800 0.5800
11.722000 0.5800 0.5800 0.5800 0.5820 0.5840
11.755228 0.5870 0.5950 0.5970 0.5990 0.6020
11.788000 0.6040 0.6040 0.6110 0.6170 0.6190
11.821228 0.6240 0.6260 0.6270 0.6290 0.6320
11.854000 0.6340 0.6360 0.6370 0.6390 0.6390
11.887228 0.6370 0.6360 0.6360 0.6340 0.6310
11.921000 0.6270 0.6260 0.6240 0.6210 0.6190
11.954228 0.6190 0.6190 0.6160 0.6160 0.6120
11.987000 0.6060 0.6020 0.5990 0.5940 0.5920
12.020228 0.5890 0.5820 0.5770 0.5700 0.5650
12.054000 0.5600 0.5590 0.5570 0.5550 0.5520
12.087228 0.5490 0.5470 0.5450 0.5450 0.5440
12.120000 0.5400 0.5370 0.5340 0.5290 0.5220
12.153228 0.5150 0.5120 0.5050 0.5020 0.4990
12.187000 0.4920 0.4870 0.4770 0.4750 0.4750
12.220228 0.4700 0.4550 0.4500 0.4450 0.4420
12.253000 0.4350 0.4320 0.4300 0.4250 0.4220
12.286228 0.4190 0.4170 0.4140 0.4120 0.4100
12.319000 0.4100 0.4100 0.4120 0.4340 0.4470
12.352228 0.4700 0.4840 0.5300 0.5500 0.5690
12.386000 0.5870 0.6060 0.6210 0.6360 0.6510
12.419228 0.6660 0.6790 0.6920 0.6970 0.7010
12.452000 0.7070 0.7120 0.7190 0.7260 0.7310
12.485228 0.7310 0.7310 0.7320 0.7320 0.7320
12.519000 0.7320 0.7320 0.7310 0.7240 0.7220
12.552228 0.7210 0.7190 0.7190 0.7160 0.7160
12.585000 0.7160 0.7160 0.7170 0.7210 0.7260
12.618228 0.7320 0.7390 0.7470 0.7510 0.7540
12.652000 0.7560 0.7590 0.7610 0.7640 0.7670
12.685228 0.7720 0.7760 0.7790 0.7810 0.7790
12.718000 0.7810 0.7810 0.7810 0.7820 0.7810
12.751228 0.7810 0.7770 0.7760 0.7740 0.7740
12.784000 0.7720 0.7720 0.7720 0.7690 0.7660
12.817228 0.7660 0.7670 0.7690 0.7710 0.7710
12.851000 0.7710 0.7710 0.7710 0.7710 0.7710
12.884228 0.7710 0.7710 0.7690 0.7690 0.7690
12.917000 0.7690 0.7710 0.7710 0.7710 0.7710
12.950228 0.7710 0.7720 0.7710 0.7710 0.7710
12.984000 0.7710 0.7710 0.7720 0.7720 0.7710
13.017228 0.7710 0.7710 0.7710 0.7710 0.7710
13.050000 0.7710 0.7690 0.7690 0.7670 0.7670
13.083228 0.7670 0.7690 0.7710 0.7720 0.7720
13.117000 0.7720 0.7720 0.7720 0.7720 0.7710
13.150228 0.7690 0.7670 0.7670 0.7640 0.7640
13.183000 0.7640 0.7620 0.7620 0.7620 0.7620
13.216228 0.7620 0.7640 0.7640 0.7640 0.7620
13.249000 0.7620 0.7520 0.7370 0.7370 0.7460
13.282228 0.7620 0.7690 0.7710 0.7670 0.7610
13.316000 0.7560 0.7540 0.7570 0.7570 0.7570
13.349228 0.7570 0.7570 0.7570 0.7570 0.7570
13.382000 0.7560 0.7540 0.7540 0.7540 0.7520
13.415228 0.7510 0.7490 0.7470 0.7470 0.7460
13.449000 0.7460 0.7460 0.7460 0.7460 0.7460
13.482228 0.7460 0.7460 0.7460 0.7440 0.7440
13.515000 0.7440 0.7420 0.7420 0.7410 0.7410
13.548228 0.7370 0.7360 0.7340 0.7320 0.7310
13.582000 0.7290 0.7320 0.7310 0.7310 0.7290
13.615228 0.7270 0.7270 0.7260 0.7260 0.7220
13.648000 0.7190 0.7190 0.7190 0.7170 0.7140
13.681228 0.7060 0.7010 0.6970 0.6960 0.6960
13.714000 0.6940 0.6940 0.6920 0.6910 0.6890
13.747228 0.6840 0.6790 0.6720 0.6660 0.6640
13.781000 0.6620 0.6610 0.6560 0.6490 0.6440
13.814228 0.6370 0.6310 0.6260 0.6170 0.6110
13.847000 0.6010 0.5970 0.5890 0.5820 0.5750
13.880228 0.5690 0.5540 0.5420 0.5300 0.5220
13.914000 0.5140 0.5070 0.5040 0.4990 0.4920
13.947228 0.4850 0.4750 0.4640 0.4570 0.4500
13.980000 0.4450 0.4420 0.4300 0.4250 0.4170
14.013228 0.4150 0.4100 0.4090 0.4090 0.4070
14.046000 0.4050 0.4040 0.4040 0.4040 0.4040
14.079228 0.4050 0.4070 0.4120 0.4150 0.4190
14.113000 0.4220 0.4250 0.4270 0.4290 0.4300
14.146228 0.4300 0.4320 0.4320 0.4350 0.4350
14.179000 0.4370 0.4390 0.4400 0.4400 0.4420
14.212228 0.4440 0.4440 0.4440 0.4420 0.4420
14.246000 0.4370 0.4340 0.4320 0.4290 0.4270
14.279228 0.4240 0.4220 0.4150 0.4140 0.4120
14.312000 0.4100 0.4090 0.4070 0.4050 0.4000
14.345228 0.3900 0.3870 0.3820 0.3780 0.3730
14.379000 0.3700 0.3650 0.3600 0.3530 0.3520
14.412228 0.3500 0.3470 0.3430 0.3380 0.3350
14.445000 0.3320 0.3300 0.3280 0.3230 0.3200
14.478228 0.3170 0.3150 0.3150 0.3120 0.3100
14.511000 0.3070 0.3050 0.3030 0.3030 0.3020
14.544228 0.3000 0.3000 0.3000 0.3000 0.2980
14.578000 0.2980 0.2980 0.2980 0.2980 0.2980
14.611228 0.2980 0.2980 0.3000 0.3020 0.3020
14.644000 0.3030 0.3030 0.3030 0.3030 0.3030
14.677228 0.3030 0.3030 0.3050 0.3070 0.3100
14.711000 0.3130 0.3170 0.3220 0.3250 0.3280
14.744228 0.3300 0.3320 0.3320 0.3320 0.3320
14.777000 0.3330 0.3350 0.3380 0.3430 0.3500
14.810228 0.3530 0.3570 0.3580 0.3650 0.3700
14.844000 0.3750 0.3800 0.3830 0.3870 0.3900
14.877228 0.3920 0.3950 0.3980 0.4000 0.4040
14.910000 0.4070 0.4100 0.4150 0.4190 0.4240
14.943228 0.4300 0.4350 0.4390 0.4420 0.4470
14.976000 0.4540 0.4600 0.4690 0.4770 0.4850
15.009228 0.4920 0.4990 0.5090 0.5100 0.5140
15.043000 0.5170 0.5190 0.5190 0.5170 0.5120
15.076228 0.5070 0.5020 0.4990 0.4950 0.4870
15.109000 0.4720 0.4690 0.4690 0.4690 0.4700
15.142228 0.4720 0.4740 0.4790 0.4800 0.4800
15.176000 0.4820 0.4840 0.4850 0.4890 0.4900
15.209228 0.4940 0.4940 0.4950 0.4970 0.4990
15.242000 0.5050 0.5090 0.5120 0.5150 0.5190
15.275228 0.5200 0.5240 0.5250 0.5300 0.5340
15.309000 0.5400 0.5470 0.5540 0.5590 0.5640
15.342228 0.5690 0.5720 0.5750 0.5790 0.5820
15.375000 0.5840 0.5840 0.5850 0.5870 0.5890
15.408228 0.5900 0.5940 0.5970 0.6010 0.6040
15.441000 0.6060 0.6070 0.6110 0.6140 0.6160
15.474228 0.6190 0.6220 0.6260 0.6270 0.6290
15.508000 0.6290 0.6290 0.6290 0.6290 0.6290
15.541228 0.6290 0.6290 0.6310 0.6310 0.6310
15.574000 0.6320 0.6340 0.6360 0.6360 0.6370
15.607228 0.6370 0.6370 0.6370 0.6370 0.6370
15.641000 0.6370 0.6370 0.6370 0.6360 0.6360
15.674228 0.6360 0.6340 0.6340 0.6340 0.6340
15.707000 0.6340 0.6340 0.6360 0.6360 0.6360
15.740228 0.6370 0.6370 0.6410 0.6410 0.6420
15.774000 0.6420 0.6440 0.6440 0.6440 0.6460
15.807228 0.6470 0.6470 0.6490 0.6510 0.6540
15.840000 0.6590 0.6610 0.6620 0.6640 0.6660
15.873228 0.6660 0.6670 0.6690 0.6710 0.6720
15.906000 0.6720 0.6740 0.6760 0.6770 0.6810
15.939228 0.6840 0.6870 0.6890 0.6910 0.6920
15.973000 0.6940 0.6960 0.6940
##END=
