##TITLE=(Trimethylsilyl)acetylene
##JCAMP-DX=4.24
##DATA TYPE=INFRARED SPECTRUM
##ORIGIN=EPA-IR VAPOR PHASE LIBRARY
##OWNER=SRD/NIST
Collection (C) 2018 copyright by the U.S. Secretary of Commerce
on behalf of the United States of America. All rights reserved.
##CAS REGISTRY NO=1066-54-2
##MOLFORM=C5 H10 Si
##$NIST SOURCE=MSDC-IR
##STATE=gas
##XUNITS=1/CM
##YUNITS=ABSORBANCE
##XFACTOR=1.
##YFACTOR=0.001
##DELTAX=1.92898
##FIRSTX=549.8
##LASTX=4000.7
##FIRSTY=22.857
##MAXX=4000.7
##MINX=549.759
##MAXY=0.389237
##MINY=0
##NPOINTS=1790
##XYDATA=(X++(Y..Y))
549.759 22.857 23.017 24.237 26.657 27.677 27.087 25.887 24.037 22.367 20.057
569.049 17.527 16.487 15.187 12.887 10.777 9.387 8.347 7.167 6.227 5.837
588.339 5.177 4.067 3.447 2.797 2.737 2.687 2.447 2.737 2.837 2.687
607.628 2.757 3.127 3.007 3.447 4.697 5.377 5.747 6.697 8.487 10.767
626.918 13.737 17.407 21.657 26.057 30.487 35.307 39.857 45.047 50.507 55.777
646.208 61.387 66.197 69.007 70.917 72.877 77.047 83.537 89.787 95.727 101.167
665.498 107.807 118.947 135.047 153.777 170.917 179.807 176.547 162.587 144.587 125.697
684.787 108.097 93.557 81.447 72.537 66.527 62.437 60.187 58.977 58.007 57.647
704.077 57.137 56.657 56.467 55.357 53.867 52.737 50.857 48.437 46.117 43.567
723.367 40.797 38.007 35.887 34.307 32.927 31.597 30.837 31.307 32.417 33.907
742.657 35.817 38.507 41.987 45.447 49.177 53.627 57.897 62.417 67.547 73.407
761.947 79.447 82.847 83.077 81.577 80.227 79.107 77.627 75.427 71.937 68.127
781.236 63.597 58.807 54.617 50.407 46.447 43.127 40.227 38.057 36.457 35.287
800.526 35.117 35.737 36.577 37.737 39.737 42.227 45.777 50.047 55.127 62.137
819.816 70.857 81.217 93.727 108.787 126.517 147.157 169.867 194.097 219.337 244.347
839.106 269.647 296.997 326.107 355.137 378.487 388.867 389.237 385.707 380.067 371.017
858.395 356.077 335.167 311.867 288.507 265.727 242.017 217.727 196.627 179.857 165.307
877.685 151.097 138.827 127.917 116.897 107.277 98.847 90.927 84.117 78.627 73.087
896.975 67.347 62.847 58.577 54.617 51.147 47.097 43.527 40.237 36.737 33.887
916.265 30.907 28.207 26.147 23.957 21.967 20.047 17.947 16.017 14.657 13.707
935.555 12.577 11.257 9.927 9.097 8.487 7.717 7.447 7.027 6.567 6.177
954.844 5.527 5.277 4.997 4.717 4.667 4.467 4.307 3.987 3.377 3.307
974.134 3.707 3.857 3.797 3.547 3.407 3.367 3.387 2.727 2.407 2.767
993.424 2.857 3.167 3.147 2.637 2.337 2.537 2.537 2.567 2.797 3.237
1012.714 3.567 3.327 3.047 3.117 3.157 3.287 3.157 2.737 2.247 2.077
1032.003 2.677 2.427 1.807 1.2946 1.1999 1.567 1.497 1.2465 1.3612 1.2773
1051.293 1.507 1.547 1.1221 1.767 2.167 1.4546 0.871 0.4183 0.6694 1.4728
1070.583 1.857 1.567 0.8963 0.5725 0.49772 0.7314 1.0772 1.4698 1.697 1.787
1089.873 1.3819 1.1269 1.2041 1.1193 1.4346 1.727 1.0272 0.224 1.0279 1.747
1109.163 0.8886 0.6785 1.4534 1.627 1.39 0.8353 1.36 2.487 1.4359 0.7065
1128.452 1.737 1.887 1.757 1.927 1.597 1.857 1.807 0.458 0.50042 1.587
1147.742 1.747 1.507 0.7045 0.4707 1.2887 1.4091 1.677 1.947 2.107 2.157
1167.032 1.777 1.907 1.867 2.137 2.117 1.567 1.717 2.137 2.327 2.767
1186.322 2.607 2.457 3.167 2.947 2.217 3.367 4.667 5.167 5.757 5.607
1205.611 5.317 5.047 5.547 6.267 6.697 6.757 7.767 9.797 10.317 11.297
1224.901 14.047 16.637 18.687 22.937 27.207 30.897 37.167 44.107 51.397 58.947
1244.191 65.497 72.287 79.237 86.277 94.227 101.677 107.977 111.607 111.057 107.267
1263.481 102.457 97.997 92.037 83.877 76.737 69.887 62.267 54.957 47.257 39.457
1282.771 32.517 26.517 21.717 18.527 15.957 13.877 12.197 10.867 10.287 10.127
1302.060 10.337 10.817 11.757 13.287 15.307 17.657 20.647 23.997 27.267 31.037
1321.350 35.147 37.257 38.547 41.957 42.697 38.247 39.477 47.777 44.927 35.507
1340.640 32.287 31.557 30.447 27.927 24.317 20.267 16.397 12.997 10.467 8.767
1359.930 7.647 6.997 6.497 6.087 5.867 5.727 5.587 5.567 5.547 5.467
1379.219 5.517 5.737 6.097 6.337 6.627 7.007 7.397 7.757 8.037 8.287
1398.509 8.687 9.187 9.557 9.797 9.867 9.997 10.177 10.297 10.257 10.137
1417.799 9.887 9.477 9.177 8.877 8.537 8.157 7.747 7.337 6.957 6.557
1437.089 6.217 5.967 5.677 5.437 5.207 5.057 5.037 4.947 4.847 4.717
1456.378 4.647 4.607 4.497 4.367 4.087 3.797 3.577 3.467 3.237 3.067
1475.668 2.957 2.577 2.487 2.457 2.217 2.057 2.017 2.057 2.047 1.777
1494.958 1.547 1.567 1.497 1.507 1.4514 1.3619 1.443 1.557 1.557 1.4204
1514.248 1.487 1.507 1.4578 1.777 1.877 1.727 1.707 1.777 1.757 1.677
1533.538 1.597 1.547 1.697 1.727 1.697 1.697 1.737 1.737 1.787 1.737
1552.827 1.567 1.4019 1.2642 1.4169 1.4603 1.2993 1.2783 1.1591 1.0538 1.1235
1572.117 1.0676 1.0316 1.1996 1.0698 0.8189 0.9609 1.1629 1.1801 0.9344 0.8671
1591.407 1.0599 1.0826 1.0798 1.0524 1.1377 1.1832 0.997 1.0393 1.153 1.1091
1610.697 1.1098 0.9701 0.9877 1.1867 1.0864 1.1428 1.3064 1.1964 1.1016 0.9927
1629.986 0.9441 0.9694 0.9247 0.911 0.9593 0.9212 0.8436 0.7803 0.6722 0.6644
1649.276 0.7083 0.8352 0.9829 0.9497 0.9624 0.9501 0.8075 0.782 0.8614 0.7887
1668.566 0.8223 0.9013 0.716 0.8288 1.0766 0.9675 0.8481 0.8377 0.631 0.58166
1687.856 0.8163 0.794 0.6125 0.6452 0.7807 0.7465 0.7496 0.8412 0.6892 0.54543
1707.146 0.6422 0.6594 0.57992 0.7173 0.7367 0.6529 0.6617 0.6062 0.6196 0.6744
1726.435 0.678 0.5991 0.47993 0.386 0.51094 0.6328 0.6537 0.6613 0.50419 0.4685
1745.725 0.57521 0.6425 0.54659 0.4057 0.4623 0.53959 0.54473 0.53967 0.5677 0.7678
1765.015 0.8108 0.6316 0.55972 0.5988 0.56229 0.4596 0.47988 0.54167 0.57866 0.6028
1784.305 0.653 0.6669 0.6538 0.6404 0.6847 0.8857 0.881 0.8063 0.9081 0.9555
1803.594 1.0077 1.0885 1.1207 1.1494 1.21 1.1516 1.1605 1.2286 1.1823 1.1827
1822.884 1.1069 1.0901 1.1087 1.13 1.1908 1.1019 1.0115 0.8668 0.7794 0.8742
1842.174 0.8518 0.7522 0.7978 0.8482 0.8482 0.7459 0.6468 0.814 0.9731 0.8085
1861.464 0.6929 0.7663 0.7507 0.8031 0.947 0.9977 1.0381 1.0445 1.045 1.0893
1880.754 1.2102 1.3788 1.527 1.687 1.777 1.747 1.767 1.887 2.057 2.217
1900.043 2.257 2.417 2.647 2.677 2.667 2.727 2.677 2.527 2.407 2.427
1919.333 2.367 2.287 2.217 1.967 2.067 2.147 2.097 2.127 2.067 2.027
1938.623 2.087 2.197 2.217 2.237 2.287 2.467 2.547 2.527 2.537 2.537
1957.913 2.587 2.607 2.577 2.457 2.507 2.607 2.547 2.507 2.577 2.567
1977.202 2.487 2.497 2.437 2.527 2.567 2.507 2.627 2.847 3.007 3.127
1996.492 3.437 4.027 4.647 5.317 6.287 7.477 8.927 10.617 12.517 14.917
2015.782 17.637 20.527 23.537 26.517 29.407 32.187 34.627 36.597 38.067 39.027
2035.072 39.627 39.677 39.117 37.857 35.787 32.767 29.037 25.607 22.417 18.927
2054.362 15.137 11.377 7.997 5.327 3.527 2.497 1.997 1.697 1.454 1.264
2073.651 1.2533 1.258 1.2434 1.2992 1.3208 1.3237 1.1948 1.089 1.1975 1.2944
2092.941 1.3127 1.368 1.4284 1.487 1.577 1.727 1.827 1.807 1.857 1.927
2112.231 1.917 1.947 1.877 1.847 1.787 1.707 1.717 1.727 1.587 1.4649
2131.521 1.557 1.577 1.429 1.3685 1.4477 1.4757 1.3695 1.3836 1.4369 1.359
2150.810 1.4001 1.4269 1.4147 1.4249 1.2911 1.1365 1.1276 1.0668 1.0548 1.0524
2170.100 1.0407 1.0013 0.8576 0.8789 0.8777 0.8426 0.8195 0.7455 0.7485 0.7958
2189.390 0.8797 0.8022 0.7245 0.8937 0.8758 0.8044 0.7585 0.6958 0.7083 0.6456
2208.680 0.6973 0.7215 0.6697 0.7749 0.8644 0.6565 0.56497 0.6012 0.6563 0.6683
2227.970 0.5857 0.6708 0.7253 0.6471 0.6134 0.54799 0.58017 0.7582 0.7616 0.7062
2247.259 0.768 0.7605 0.727 0.7896 0.7631 0.8016 0.8505 0.614 0.52298 0.5872
2266.549 0.51723 0.6022 0.7721 0.8157 0.6954 0.6278 0.56319 0.6032 0.6414 0.58235
2285.839 0.6857 0.6283 0.50915 0.4175 0.314 0.385 0.4406 0.4674 0.52518 0.52836
2305.129 0.4466 0.383 0.281 0.307 0.48519 0.4746 0.4144 0.51466 0.6005 0.5327
2324.418 0.4658 0.3889 0.323 0.4135 0.6519 0.6819 0.5716 0.562 0.53122 0.4646
2343.708 0.53887 0.5957 0.50557 0.49924 0.5879 0.461 0.33 0.384 0.41 0.4179
2362.998 0.304 0.384 0.48532 0.53339 0.6031 0.51633 0.53116 0.53802 0.4094 0.38
2382.288 0.4208 0.35 0.317 0.386 0.359 0.4016 0.492505 0.4465 0.49821 0.4401
2401.578 0.382 0.47782 0.4757 0.4188 0.4168 0.352 0.298 0.4206 0.4492 0.53341
2420.867 0.6837 0.58096 0.4501 0.4159 0.267 0.327 0.4175 0.38 0.4337 0.4719
2440.157 0.48577 0.4489 0.50726 0.55001 0.4261 0.349 0.4485 0.352 0.37 0.56335
2459.447 0.6056 0.51303 0.4271 0.50168 0.495617 0.326 0.4196 0.6582 0.6591 0.7617
2478.737 0.8536 0.7687 0.7927 0.8971 0.8574 0.8359 0.8079 0.7081 0.8176 0.9551
2498.026 0.9825 0.9117 0.9522 1.0695 1.0261 0.9348 0.8568 0.8469 0.7665 0.50004
2517.316 0.490149 0.6658 0.6241 0.4745 0.369 0.4539 0.56742 0.4381 0.4675 0.6881
2536.606 0.7556 0.6539 0.4287 0.4135 0.56986 0.6123 0.50883 0.50443 0.6148 0.6605
2555.896 0.7016 0.6931 0.6372 0.6933 0.7532 0.6861 0.6338 0.725 0.6451 0.6702
2575.186 0.8669 0.8269 0.7871 0.7644 0.6989 0.6785 0.8161 0.8894 0.8957 1.0201
2594.475 1.0609 1.0006 0.968 1.0455 1.0657 1.1059 1.073 0.8718 0.9208 1.0183
2613.765 1.0704 1.0587 0.9002 1.0261 1.1807 1.1173 1.3307 1.4702 1.4441 1.677
2633.055 1.807 1.727 1.617 1.4698 1.2569 1.0633 0.8951 0.8241 0.8193 0.615
2652.345 0.6952 0.8145 0.6512 0.6208 0.6242 0.6428 0.7279 0.7398 0.7438 0.929
2671.634 1.051 1.1009 1.0867 0.9916 1.0007 1.1102 1.1763 1.3151 1.3648 1.3323
2690.924 1.2813 1.0133 1.0553 1.2932 1.4157 1.4417 1.4186 1.487 1.3917 1.3396
2710.214 1.1987 0.984 0.8819 0.8674 0.8861 0.9126 0.9223 0.809 0.9317 1.1443
2729.504 1.16 1.1368 1.2238 1.4325 1.597 1.4234 1.3355 1.517 1.597 1.647
2748.794 1.537 1.557 1.797 1.807 1.947 2.047 1.987 2.017 1.937 2.017
2768.083 2.207 2.097 2.287 2.497 2.397 2.477 2.647 2.897 3.217 3.337
2787.373 3.267 3.487 3.847 3.977 4.127 4.357 4.527 4.857 5.087 5.287
2806.663 5.537 5.477 5.387 5.407 5.277 5.327 5.577 5.627 5.417 5.397
2825.953 5.607 5.687 5.647 5.557 5.627 5.867 6.137 6.097 6.027 6.317
2845.242 6.517 6.767 7.037 7.207 7.257 7.137 7.327 7.457 7.617 7.877
2864.532 7.907 7.917 7.997 8.377 8.717 9.007 9.477 9.837 10.407 10.977
2883.822 11.607 12.727 14.157 15.507 16.787 17.927 19.137 20.467 21.437 22.227
2903.112 23.097 23.897 24.617 24.927 24.427 23.417 22.357 21.297 20.297 19.297
2922.401 18.167 16.977 15.977 15.187 14.487 14.167 14.087 14.427 15.297 16.827
2941.691 18.977 21.557 25.327 29.947 35.277 41.517 47.717 53.357 58.667 63.687
2960.981 67.857 72.147 76.837 79.657 79.667 78.597 77.837 75.597 70.647 64.277
2980.271 57.397 50.527 44.467 38.867 33.287 28.207 23.547 19.397 16.017 13.167
2999.561 11.187 9.797 8.407 7.447 6.847 6.357 6.027 5.827 5.707 5.547
3018.850 5.257 5.177 5.327 5.447 5.507 5.427 5.457 5.697 5.747 5.767
3038.140 6.017 6.237 6.197 6.497 6.927 6.987 7.197 7.517 7.517 7.507
3057.430 7.727 8.067 8.247 8.317 8.437 8.487 8.587 8.667 8.827 8.867
3076.720 8.677 8.727 8.747 8.487 8.017 7.677 7.587 7.577 7.257 7.087
3096.009 7.187 6.697 6.277 6.187 6.147 6.087 5.767 5.607 5.447 5.317
3115.299 5.397 5.297 5.257 5.117 4.667 4.467 4.447 4.097 3.687 3.477
3134.589 3.497 3.377 3.107 3.017 3.007 2.707 2.437 2.527 2.357 2.047
3153.879 1.887 1.777 1.877 2.047 2.127 2.107 2.197 2.387 2.487 2.617
3173.169 2.627 2.567 3.057 3.437 3.427 3.527 3.687 3.567 3.307 3.297
3192.458 3.277 3.327 3.107 2.977 2.807 2.407 2.177 2.117 2.037 1.837
3211.748 1.747 1.497 1.4704 1.4668 1.4431 1.3656 1.0929 1.0876 1.0773 1.0183
3231.038 1.1609 1.2171 1.3181 1.507 1.4495 1.4152 1.537 1.617 1.707 2.127
3250.328 2.517 2.747 3.177 3.427 3.627 3.827 3.977 4.337 5.307 6.837
3269.617 8.107 8.987 10.067 11.607 13.017 14.077 14.767 15.377 17.657 22.517
3288.907 27.667 29.747 31.397 35.767 40.537 42.697 41.417 38.807 38.747 45.837
3308.197 55.437 49.067 33.607 30.187 33.517 34.907 33.037 28.027 21.317 14.777
3327.487 9.647 6.177 4.247 3.237 2.427 1.857 1.677 1.4278 1.2577 1.1563
3346.777 1.1675 1.2841 1.4226 1.353 1.2072 1.1381 1.0831 1.192 1.3343 1.1999
3366.066 0.9874 0.9041 1.0476 1.023 0.9219 0.9197 0.6149 0.50749 0.6182 0.54093
3385.356 0.51588 0.7741 0.8395 0.7491 0.6903 0.6411 0.7481 0.7623 0.8138 0.9003
3404.646 0.7983 0.8484 0.9274 0.8337 1.1246 1.3082 1.2269 1.2226 1.2321 1.647
3423.936 1.777 1.567 1.547 1.747 1.617 1.1533 0.9779 1.0651 1.0596 0.9828
3443.225 0.7986 0.5928 0.4092 0.31 0.4005 0.4488 0.5767 0.7125 0.7485 0.6747
3462.515 0.744 0.7026 0.828 0.7926 0.494727 0.339 0.4052 0.52702 0.4628 0.58432
3481.805 0.52942 0.355 0.307 0.54051 0.706 0.7293 0.7323 0.50975 0.6148 0.8133
3501.095 0.56331 0.5888 0.9651 0.8879 0.7782 0.52784 0.237 0.169 0.3991 0.6353
3520.385 0.6711 0.761 0.57331 0.8355 1.1776 0.9973 1.0201 0.8964 0.9165 1.1935
3539.674 1.1162 1.0926 1.0768 1.1777 1.0764 0.759 0.841 1.1081 1.2391 1.1823
3558.964 1.1958 1.0766 0.9024 0.8497 0.8583 1.0487 1.2247 1.3146 1.0821 0.9892
3578.254 1.2375 1.3896 1.265 1.2644 1.4385 1.4141 1.4481 1.507 1.617 1.657
3597.544 1.617 1.607 1.4508 1.3555 1.2157 1.1229 1.4473 1.547 1.4787 1.4714
3616.833 1.3563 1.497 1.717 1.757 1.737 1.547 1.757 1.917 1.567 1.497
3636.123 1.617 1.957 1.947 1.757 1.717 1.717 2.057 2.487 2.407 2.197
3655.413 2.467 2.537 2.457 2.337 2.427 2.397 2.007 2.157 2.057 1.807
3674.703 2.197 2.387 2.137 2.057 2.367 2.247 1.887 1.727 1.517 1.527
3693.993 1.517 1.3849 1.474 1.657 1.4833 1.497 1.747 1.887 1.787 1.797
3713.282 1.917 1.677 1.677 1.737 1.677 1.667 1.747 2.127 2.277 2.127
3732.572 2.357 2.467 2.447 2.587 2.287 2.117 2.517 2.507 2.427 2.447
3751.862 2.217 2.257 2.177 2.097 2.187 2.387 2.197 1.807 1.837 1.997
3771.152 2.037 1.987 2.107 2.017 1.817 1.627 1.4846 1.3531 1.567 1.737
3790.441 1.607 1.597 1.867 1.887 1.627 1.677 1.547 1.877 2.237 1.977
3809.731 1.917 2.047 2.007 1.877 1.577 1.4204 1.547 1.3909 1.2112 1.3211
3829.021 1.3385 1.1528 1.3963 1.4306 0.9707 1.0151 1.1201 0.9956 0.8261 0.6649
3848.311 0.817 0.8613 0.6181 0.6641 0.7128 0.5973 0.6504 0.4501 0.308 0.5643
3867.601 0.258 0 0.47865 0.67 0.6784 0.6231 0.6758 0.8869 0.8453 0.8861
3886.890 0.7793 0.4758 0.4538 0.5873 0.7114 0.8206 0.6566 0.57381 0.338 0.335
3906.180 0.5928 0.6312 0.55465 0.53556 0.7312 0.7229 0.8127 0.9857 0.9372 0.6623
3925.470 0.6059 0.7372 0.802 0.7976 0.7153 0.56773 0.6407 0.8493 1.0005 0.9384
3944.760 0.9379 1.28 1.2074 0.9787 0.8384 1.1521 1.4323 1.547 1.877 1.957
3964.049 1.897 1.717 1.2236 1.0211 0.8029 0.6843 1.0099 0.622 0.288 0.4339
3983.339 0.55572 0.55206 0.263 0.237 0.51854 0.51412 0.4453 0.4148 0.4458 0.488027
##END=
