##TITLE=n-Butylamine
##JCAMP-DX=4.24
##DATA TYPE=INFRARED SPECTRUM
##ORIGIN=EPA-IR VAPOR PHASE LIBRARY
##OWNER=SRD/NIST
Collection (C) 2018 copyright by the U.S. Secretary of Commerce
on behalf of the United States of America. All rights reserved.
##CAS REGISTRY NO=109-73-9
##MOLFORM=C 4 H 11 N
##$NIST SOURCE=MSDC-IR
##STATE=gas
##XUNITS=1/CM
##YUNITS=ABSORBANCE
##XFACTOR=1.
##YFACTOR=0.001
##DELTAX=3.85796
##FIRSTX=501.5
##LASTX=4000.7
##FIRSTY=14.6
##MAXX=4000.7
##MINX=501.534
##MAXY=0.40725
##MINY=0.0002024
##NPOINTS=908
##XYDATA=(X++(Y..Y))
501.534 14.6 14.24 13.67 13.17 12.84 12.6 12.39 12.16 12.02 12.1
540.114 12.34 12.64 12.84 12.93 13.34 13.82 13.99 14.25 14.7 15.18
578.693 15.58 15.92 16.39 16.91 17.3 17.74 18.16 18.58 19.14 19.64
617.273 20.21 20.94 21.58 22.15 22.93 23.68 24.47 25.32 26.18 27.11
655.852 27.95 28.92 29.87 30.8 31.8 32.88 34.13 35.52 37.07 38.85
694.432 40.99 43.61 46.71 50.38 54.72 59.91 65.9 72.62 80.12 88.11
733.011 96.61 105.58 114.81 123.77 132.19 139.97 146.51 151.53 154.92 156.39
771.591 155.75 152.78 146.68 138.06 129.05 120.03 110.21 100 90.28 81.56
810.170 74.16 67.7 62.11 57.32 52.63 47.92 43.82 40.43 37.61 35.37
848.750 33.49 31.94 30.57 29.35 28.28 27.31 26.38 25.52 24.81 24.24
887.330 23.7 23.07 22.47 21.97 21.53 21.12 20.62 20.04 19.58 19.31
925.909 19.12 19 18.86 18.75 18.72 18.75 18.78 18.65 18.48 18.28
964.489 18.03 17.65 17.19 16.76 16.31 15.89 15.68 15.71 15.83 16.14
1003.068 16.58 17.07 17.59 18.15 18.73 19.36 20.18 21.14 22.2 23.52
1041.648 24.61 25.61 27.08 28.98 31.22 33.75 36.4 39.11 41.55 43.26
1080.227 44.11 43.94 42.94 40.91 37.82 34.35 30.75 27.15 23.9 21.18
1118.807 19.01 17.23 15.53 14.14 12.9 11.73 10.79 10.02 9.27 8.58
1157.387 8.1 7.68 7.29 6.92 6.55 6.31 6.18 6.01 5.74 5.47
1195.966 5.35 5.37 5.4 5.39 5.48 5.68 5.98 6.23 6.56 7.06
1234.546 7.44 7.67 7.85 7.92 7.98 8.1 8.21 8.33 8.27 8.23
1273.125 8.44 8.73 9.06 9.64 10.18 10.66 11.16 11.62 12.07 12.52
1311.705 13.04 13.67 14.39 15.16 15.96 16.82 17.73 18.8 20.05 21.48
1350.284 23.09 24.67 26.37 28.55 31.24 34.12 36.51 37.95 38.57 38.26
1388.864 37.6 36.39 33.5 29.61 25.82 22.66 20.44 19.33 19.29 20.11
1427.443 21.69 23.84 26.41 29.35 32.46 35.68 38.84 41.56 43.65 44.73
1466.023 44.27 42.87 40.99 38.6 35.67 32.16 28.33 24.62 21.33 18.6
1504.603 16.46 14.68 13.27 12.17 11.3 10.64 10.17 9.85 9.64 9.54
1543.182 9.57 9.66 9.81 10.12 10.58 11.08 11.72 12.57 13.63 14.98
1581.762 16.59 18.51 20.85 23.69 27.02 30.88 35.06 39.13 42.43 44.45
1620.341 45.19 44.83 43.49 41.08 37.49 33.01 28.29 23.85 20.1 16.97
1658.921 14.5 12.51 10.92 9.61 8.55 7.67 6.93 6.34 5.87 5.49
1697.500 5.21 4.98 4.75 4.55 4.42 4.34 4.24 4.15 4.05 3.98
1736.080 3.94 3.87 3.8 3.77 3.72 3.64 3.59 3.55 3.54 3.52
1774.659 3.47 3.45 3.45 3.45 3.46 3.47 3.49 3.52 3.5 3.48
1813.239 3.46 3.41 3.37 3.31 3.26 3.21 3.12 3.02 2.9 2.77
1851.819 2.64 2.5 2.36 2.23 2.1 1.94 1.8 1.67 1.54 1.42
1890.398 1.33 1.25 1.16 1.08 1.03 0.9649 0.9058 0.8808 0.8499 0.8095
1928.978 0.7717 0.7476 0.7278 0.6978 0.6773 0.6429 0.5944 0.5623 0.5384 0.527
1967.557 0.5028 0.4616 0.4247 0.4236 0.4318 0.4181 0.4101 0.4167 0.4279 0.4661
2006.137 0.517 0.5752 0.6431 0.7073 0.756 0.7786 0.8072 0.8653 0.8617 0.838
2044.716 0.8479 0.8363 0.7811 0.7178 0.687 0.6692 0.6336 0.5842 0.5591 0.5676
2083.296 0.5967 0.656 0.6836 0.6759 0.6763 0.6886 0.7045 0.7151 0.7414 0.7506
2121.875 0.753 0.7273 0.6951 0.7161 0.703 0.6693 0.6444 0.6162 0.6215 0.6061
2160.455 0.5798 0.6006 0.5944 0.5617 0.57 0.5619 0.5573 0.5896 0.6236 0.6071
2199.035 0.5577 0.5667 0.5888 0.5866 0.605 0.6185 0.6122 0.6313 0.6397 0.6845
2237.614 0.7054 0.704 0.707 0.712 0.742 0.7789 0.8235 0.8407 0.8524 0.8759
2276.194 0.8798 0.8622 0.845 0.809 0.813 0.8168 0.8057 0.8348 0.8581 0.8436
2314.773 0.8454 0.8869 0.9284 0.9524 0.949 0.9288 0.9076 0.8756 0.8526 0.8742
2353.353 0.9121 0.9383 0.9489 0.9653 1.01 1 0.9569 0.9592 0.9771 0.9936
2391.932 1.05 1.08 1.07 1.07 1.08 1.08 1.09 1.08 1.04 1.02
2430.512 0.9831 0.9406 0.9007 0.8527 0.8035 0.7893 0.7763 0.7806 0.7872 0.7852
2469.092 0.8151 0.843 0.8657 0.8413 0.8537 0.9068 0.9512 1.06 1.08 1.08
2507.671 1.17 1.19 1.23 1.31 1.37 1.46 1.55 1.67 1.8 1.88
2546.251 1.97 2.09 2.2 2.29 2.41 2.53 2.66 2.83 2.98 3.09
2584.830 3.22 3.36 3.49 3.6 3.75 3.93 4.14 4.32 4.51 4.72
2623.410 4.92 5.14 5.38 5.63 5.88 6.14 6.46 6.8 7.12 7.49
2661.989 7.83 8.16 8.52 8.89 9.27 9.57 9.84 10.12 10.42 10.74
2700.569 11.1 11.48 11.88 12.37 12.97 13.63 14.34 15.15 15.95 16.67
2739.148 17.37 17.99 18.52 18.94 19.23 19.38 19.4 19.5 19.7 20.05
2777.728 20.62 21.35 22.36 23.76 25.49 27.66 30.35 33.66 37.71 42.62
2816.308 48.48 55.41 63.62 73.09 83.94 96.12 109.25 123 136.92 150.54
2854.887 163.53 175.8 187.33 198.48 209.73 219.27 223.59 224.36 226.29 231.04
2893.467 238.26 246 254.91 267.48 284.7 305.25 326.79 348.15 368.93 388.23
2932.046 402.73 407.25 402.63 395.58 388.98 382.23 374.03 362.43 346.81 322.14
2970.626 292.81 267.71 242.14 210.62 173.94 138.32 108.64 85.56 67.95 54.38
3009.205 43.99 36.13 30.29 26.02 22.86 20.49 18.71 17.2 15.97 15
3047.785 14.05 13.16 12.38 11.71 11.12 10.59 10.1 9.63 9.24 8.89
3086.364 8.47 8.12 7.85 7.58 7.3 7 6.74 6.51 6.25 6.02
3124.944 5.84 5.68 5.54 5.41 5.25 5.05 4.88 4.82 4.74 4.61
3163.524 4.54 4.45 4.31 4.18 4.14 4.11 3.99 3.89 3.73 3.57
3202.103 3.41 3.26 3.1 2.92 2.77 2.61 2.43 2.24 2.08 1.97
3240.683 1.88 1.76 1.6 1.55 1.49 1.36 1.35 1.38 1.29 1.21
3279.262 1.18 1.18 1.17 1.19 1.27 1.38 1.49 1.52 1.62 1.82
3317.842 2.1 2.34 2.59 3.03 3.47 3.78 4.08 4.25 4.26 4.21
3356.421 4.05 3.75 3.28 2.87 2.61 2.3 2.07 1.99 1.92 1.81
3395.001 1.75 1.76 1.76 1.74 1.72 1.71 1.59 1.44 1.39 1.36
3433.580 1.22 1.03 0.899 0.7991 0.7737 0.7414 0.6563 0.533 0.4627 0.5042
3472.160 0.4866 0.4543 0.4149 0.3637 0.3342 0.3023 0.2882 0.2682 0.2628 0.2585
3510.740 0.2568 0.3038 0.3403 0.4158 0.4281 0.2974 0.2463 0.2763 0.2818 0.2342
3549.319 0.2295 0.2768 0.255 0.2024 0.2085 0.3141 0.4473 0.3948 0.2795 0.3031
3587.899 0.3253 0.3371 0.375 0.3452 0.36 0.4359 0.4632 0.4706 0.494 0.532
3626.478 0.6265 0.6612 0.6595 0.7055 0.7671 0.833 0.8926 0.8942 0.7717 0.7387
3665.058 0.7936 0.824 0.8144 0.7453 0.6801 0.639 0.6845 0.6669 0.6124 0.6838
3703.637 0.7326 0.7396 0.6633 0.5988 0.6195 0.5651 0.5685 0.6057 0.6362 0.6467
3742.217 0.5385 0.5089 0.5142 0.576 0.6963 0.6806 0.6982 0.7119 0.6835 0.6095
3780.797 0.577 0.6497 0.7011 0.7543 0.6697 0.6757 0.8051 0.7192 0.6553 0.7665
3819.376 0.8524 0.8351 0.8513 0.9017 0.9089 0.8293 0.7921 0.8435 0.9296 0.9346
3857.956 0.794 0.7789 0.7629 0.6713 0.6582 0.6861 0.7367 0.7647 0.7252 0.737
3896.535 0.7817 0.7969 0.8141 0.8205 0.9212 0.9275 0.8925 0.9238 0.9845 0.9823
3935.115 0.8738 0.951 1.03 1.06 1.15 1.15 1.15 1.26 1.29 1.3
3973.694 1.34 1.37 1.4 1.4 1.46 1.49 1.45 1.47
##END=
