##TITLE=METHYL ISOPROPENYL ETHER
##JCAMP-DX=4.24
##DATA TYPE=INFRARED SPECTRUM
##CLASS=COBLENTZ
##ORIGIN=TENNESSEE EASTMAN COMPANY, RESEARCH LABORATORIES
##OWNER=COBLENTZ SOCIETY
Collection (C) 2018 copyright by the U.S. Secretary of Commerce
on behalf of the United States of America. All rights reserved.
##DATE=Not specified, most likely prior to 1970
##NAMES=isopropenyl methyl ether
2-methoxy-1-propene
##CAS REGISTRY NO=116-11-0
##MOLFORM=C4 H8 O
##SOURCE REFERENCE=COBLENTZ NO. 1762
##$NIST SOURCE=COBLENTZ
##$NIST IMAGE=cob1762
##SPECTROMETER/DATA SYSTEM=Not specified, most likely a prism, grating, or hybrid spectrometer.
##STATE=LIQUID
##PATH LENGTH=0.003 CM
##SAMPLING PROCEDURE=TRANSMISSION
##RESOLUTION=4
##DATA PROCESSING=DIGITIZED BY NIST FROM HARD COPY
##XUNITS=MICROMETERS
##YUNITS=TRANSMITTANCE
##XFACTOR=1.000000
##YFACTOR=1
##DELTAX=000.006829
##FIRSTX=2.048
##LASTX=15.9868
##FIRSTY=0.848
##MAXX=15.9868
##MINX=2.048
##MAXY=0.967
##MINY=0.013
##NPOINTS=2042
##XYDATA=(X++(Y..Y))
2.048000 0.8480 0.8480 0.8480 0.8480 0.8490
2.082163 0.8490 0.8490 0.8490 0.8490 0.8490
2.116000 0.8490 0.8510 0.8510 0.8510 0.8510
2.150163 0.8510 0.8530 0.8530 0.8510 0.8510
2.184000 0.8510 0.8510 0.8480 0.8390 0.8360
2.218163 0.8340 0.8270 0.8240 0.8200 0.8150
2.253000 0.8100 0.8020 0.8000 0.7950 0.7930
2.287163 0.7950 0.7960 0.8000 0.8080 0.8150
2.321000 0.8200 0.8240 0.8250 0.8250 0.8270
2.355163 0.8290 0.8310 0.8320 0.8360 0.8370
2.389000 0.8390 0.8390 0.8430 0.8460 0.8480
2.423163 0.8490 0.8490 0.8490 0.8490 0.8490
2.458000 0.8490 0.8480 0.8460 0.8440 0.8440
2.492163 0.8440 0.8440 0.8440 0.8460 0.8480
2.526000 0.8480 0.8490 0.8490 0.8530 0.8560
2.560163 0.8580 0.8610 0.8630 0.8660 0.8660
2.594000 0.8680 0.8680 0.8680 0.8680 0.8680
2.628163 0.8700 0.8700 0.8700 0.8720 0.8770
2.662000 0.8820 0.8850 0.8850 0.8850 0.8850
2.696163 0.8850 0.8850 0.8850 0.8850 0.8830
2.731000 0.8830 0.8830 0.8830 0.8830 0.8820
2.765163 0.8820 0.8820 0.8800 0.8780 0.8780
2.799000 0.8780 0.8770 0.8750 0.8750 0.8750
2.833163 0.8750 0.8750 0.8750 0.8750 0.8750
2.867000 0.8770 0.8770 0.8780 0.8780 0.8780
2.901163 0.8780 0.8780 0.8780 0.8780 0.8780
2.936000 0.8800 0.8800 0.8800 0.8800 0.8820
2.970163 0.8820 0.8820 0.8820 0.8820 0.8820
3.004000 0.8830 0.8820 0.8820 0.8820 0.8820
3.038163 0.8820 0.8820 0.8820 0.8820 0.8820
3.072000 0.8820 0.8820 0.8820 0.8800 0.8800
3.106163 0.8780 0.8770 0.8730 0.8720 0.8680
3.140000 0.8650 0.8630 0.8610 0.8580 0.8530
3.174163 0.8480 0.8390 0.8200 0.8000 0.7200
3.209000 0.5980 0.5900 0.5900 0.6890 0.7350
3.243163 0.8020 0.8050 0.8030 0.8000 0.7830
3.277000 0.7710 0.7500 0.7230 0.6240 0.5290
3.311163 0.3540 0.2570 0.1560 0.1560 0.1920
3.345000 0.2640 0.2640 0.1680 0.0750 0.0510
3.379163 0.0510 0.0750 0.0850 0.1260 0.1620
3.414000 0.1990 0.2660 0.3370 0.4010 0.4410
3.448163 0.4690 0.4890 0.5000 0.5010 0.5000
3.482000 0.4590 0.3870 0.3510 0.3510 0.3800
3.516163 0.4590 0.5350 0.6260 0.6700 0.7040
3.550000 0.7200 0.7370 0.7590 0.7960 0.8150
3.584163 0.8340 0.8430 0.8480 0.8490 0.8580
3.619000 0.8660 0.8680 0.8700 0.8700 0.8700
3.653163 0.8700 0.8700 0.8720 0.8720 0.8750
3.687000 0.8800 0.8870 0.8950 0.8970 0.9010
3.721163 0.9090 0.9110 0.9120 0.9120 0.9120
3.755000 0.9120 0.9120 0.9120 0.9120 0.9120
3.789163 0.9110 0.9060 0.9010 0.8990 0.8970
3.823000 0.8990 0.9040 0.9140 0.9180 0.9210
3.857163 0.9210 0.9190 0.9180 0.9090 0.9060
3.892000 0.9020 0.9020 0.9010 0.9010 0.9020
3.926163 0.9020 0.9020 0.9060 0.9060 0.9090
3.960000 0.9120 0.9160 0.9190 0.9210 0.9230
3.994163 0.9240 0.9280 0.9280 0.9330 0.9330
4.028000 0.9330 0.9330 0.9310 0.9280 0.9230
4.062163 0.9070 0.8990 0.8990 0.8990 0.9010
4.097000 0.9090 0.9160 0.9180 0.9190 0.9190
4.131163 0.9190 0.9210 0.9230 0.9240 0.9240
4.165000 0.9280 0.9300 0.9310 0.9330 0.9350
4.199163 0.9360 0.9380 0.9400 0.9410 0.9430
4.233000 0.9480 0.9480 0.9500 0.9500 0.9520
4.267163 0.9520 0.9520 0.9520 0.9520 0.9520
4.301000 0.9520 0.9520 0.9520 0.9500 0.9500
4.335163 0.9500 0.9500 0.9500 0.9480 0.9480
4.370000 0.9480 0.9480 0.9500 0.9500 0.9520
4.404163 0.9520 0.9500 0.9500 0.9500 0.9500
4.438000 0.9520 0.9520 0.9500 0.9500 0.9480
4.472163 0.9480 0.9410 0.9310 0.9140 0.8990
4.506000 0.8800 0.8780 0.8800 0.8870 0.9040
4.540163 0.9120 0.9160 0.9160 0.9160 0.9160
4.575000 0.9140 0.9140 0.9090 0.8850 0.8830
4.609163 0.8850 0.8900 0.9020 0.9180 0.9300
4.643000 0.9310 0.9380 0.9380 0.9380 0.9360
4.677163 0.9350 0.9310 0.9240 0.9160 0.8950
4.711000 0.8750 0.8600 0.8560 0.8560 0.8580
4.745163 0.8750 0.8940 0.9040 0.9120 0.9190
4.780000 0.9230 0.9240 0.9280 0.9310 0.9380
4.814163 0.9430 0.9480 0.9500 0.9500 0.9500
4.848000 0.9500 0.9500 0.9520 0.9520 0.9500
4.882163 0.9500 0.9500 0.9480 0.9380 0.9330
4.916000 0.9190 0.8970 0.8660 0.8360 0.8220
4.950163 0.8220 0.8250 0.8510 0.8800 0.9010
4.984000 0.9230 0.9330 0.9360 0.9400 0.9470
5.018163 0.9530 0.9590 0.9590 0.9590 0.9590
5.053000 0.9590 0.9590 0.9600 0.9620 0.9640
5.087163 0.9640 0.9640 0.9640 0.9640 0.9640
5.121000 0.9640 0.9640 0.9640 0.9620 0.9620
5.155163 0.9590 0.9520 0.9360 0.9310 0.9260
5.189000 0.9180 0.9090 0.8940 0.8730 0.8540
5.223163 0.8370 0.8070 0.8050 0.8050 0.8080
5.258000 0.8440 0.8650 0.8820 0.8990 0.9070
5.292163 0.9180 0.9210 0.9230 0.9230 0.9230
5.326000 0.9210 0.9140 0.9060 0.9040 0.9040
5.360163 0.9070 0.9180 0.9260 0.9330 0.9480
5.394000 0.9550 0.9590 0.9620 0.9640 0.9640
5.428163 0.9650 0.9650 0.9670 0.9670 0.9670
5.462000 0.9670 0.9670 0.9670 0.9670 0.9670
5.496163 0.9670 0.9670 0.9650 0.9650 0.9650
5.531000 0.9640 0.9640 0.9640 0.9640 0.9640
5.565163 0.9640 0.9640 0.9620 0.9620 0.9600
5.599000 0.9600 0.9590 0.9570 0.9570 0.9550
5.633163 0.9530 0.9520 0.9470 0.9380 0.9210
5.667000 0.9040 0.8850 0.8800 0.8650 0.8650
5.701163 0.8630 0.8650 0.8650 0.8680 0.8720
5.736000 0.8730 0.8730 0.8730 0.8730 0.8720
5.770163 0.8560 0.8390 0.8100 0.8000 0.7910
5.804000 0.7660 0.7520 0.7370 0.7260 0.7200
5.838163 0.7180 0.7180 0.7180 0.7160 0.7130
5.872000 0.7030 0.6940 0.6600 0.6430 0.6270
5.906163 0.6070 0.5880 0.5680 0.5660 0.5520
5.940000 0.5110 0.4650 0.4160 0.3440 0.2910
5.974163 0.2400 0.2090 0.1800 0.1360 0.0520
6.009000 0.0230 0.0180 0.0150 0.0130 0.0130
6.043163 0.0130 0.0130 0.0180 0.0320 0.0470
6.077000 0.0610 0.0920 0.1160 0.1390 0.1620
6.111163 0.1890 0.2180 0.2350 0.2490 0.2490
6.145000 0.2490 0.2490 0.2490 0.2380 0.2250
6.179163 0.2130 0.2030 0.1870 0.1670 0.1510
6.214000 0.1310 0.1220 0.1140 0.1090 0.1050
6.248163 0.1020 0.1000 0.1040 0.1100 0.1220
6.282000 0.1340 0.1680 0.1960 0.2330 0.2590
6.316163 0.2780 0.3410 0.3750 0.4260 0.4690
6.350000 0.5180 0.5400 0.5640 0.5830 0.6190
6.384163 0.6450 0.6530 0.6620 0.6860 0.6890
6.419000 0.7380 0.7540 0.7620 0.7730 0.7790
6.453163 0.7830 0.7840 0.7900 0.7900 0.7900
6.487000 0.7900 0.7910 0.7910 0.7910 0.7910
6.521163 0.7910 0.7910 0.7910 0.7910 0.7910
6.555000 0.7900 0.7900 0.7880 0.7840 0.7840
6.589163 0.7840 0.7830 0.7810 0.7810 0.7780
6.623000 0.7740 0.7710 0.7690 0.7660 0.7620
6.657163 0.7610 0.7550 0.7490 0.7420 0.7330
6.692000 0.7160 0.6990 0.6800 0.6530 0.6220
6.726163 0.6020 0.5760 0.5420 0.5180 0.4410
6.760000 0.4230 0.3250 0.2420 0.1960 0.1820
6.794163 0.1800 0.1790 0.1770 0.1720 0.1650
6.828000 0.1560 0.1430 0.1170 0.0810 0.0510
6.862163 0.0370 0.0350 0.0350 0.0370 0.0460
6.897000 0.0540 0.0630 0.0730 0.0850 0.0980
6.931163 0.1330 0.1670 0.1720 0.2160 0.2260
6.965000 0.2330 0.2500 0.2740 0.2880 0.3030
6.999163 0.3170 0.3290 0.3870 0.4400 0.4640
7.033000 0.4910 0.5030 0.5150 0.5230 0.5320
7.067163 0.5350 0.5350 0.5340 0.5320 0.5220
7.101000 0.4980 0.4690 0.4520 0.3940 0.3430
7.135163 0.3020 0.2550 0.2260 0.2250 0.2280
7.170000 0.2520 0.3000 0.3340 0.3630 0.3950
7.204163 0.4090 0.4230 0.4280 0.4300 0.4300
7.238000 0.4020 0.3410 0.2950 0.2550 0.1940
7.272163 0.1460 0.0970 0.0640 0.0490 0.0460
7.306000 0.0490 0.0850 0.0970 0.1770 0.2380
7.340163 0.3080 0.3660 0.4070 0.4530 0.5000
7.375000 0.5340 0.5610 0.5810 0.5970 0.6270
7.409163 0.6600 0.6670 0.6720 0.6840 0.6960
7.443000 0.7030 0.7130 0.7160 0.7180 0.7200
7.477163 0.7210 0.7210 0.7200 0.7200 0.7180
7.511000 0.7130 0.6970 0.6920 0.6800 0.6680
7.545163 0.6530 0.6290 0.6160 0.5970 0.5760
7.580000 0.5540 0.5320 0.5110 0.4860 0.4360
7.614163 0.4070 0.3680 0.3310 0.2980 0.2640
7.648000 0.2300 0.1920 0.1680 0.1450 0.1120
7.682163 0.0950 0.0730 0.0510 0.0370 0.0300
7.716000 0.0230 0.0200 0.0180 0.0150 0.0150
7.750163 0.0130 0.0130 0.0130 0.0130 0.0130
7.784000 0.0130 0.0130 0.0130 0.0130 0.0130
7.818163 0.0150 0.0150 0.0150 0.0150 0.0220
7.853000 0.0300 0.0440 0.0590 0.0810 0.1050
7.887163 0.1330 0.1500 0.1700 0.1990 0.2250
7.921000 0.2400 0.2550 0.2730 0.2900 0.3220
7.955163 0.3490 0.3730 0.3920 0.4120 0.4280
7.989000 0.4500 0.4640 0.4890 0.5010 0.5100
8.023163 0.5180 0.5270 0.5300 0.5370 0.5390
8.058000 0.5390 0.5390 0.5390 0.5370 0.5350
8.092163 0.5300 0.5250 0.5170 0.5110 0.5080
8.126000 0.5060 0.5060 0.5060 0.5060 0.5150
8.160163 0.5290 0.5390 0.5470 0.5520 0.5580
8.194000 0.5610 0.5750 0.5850 0.5980 0.6050
8.228163 0.6170 0.6240 0.6330 0.6390 0.6430
8.262000 0.6480 0.6480 0.6480 0.6390 0.6270
8.296163 0.6210 0.5780 0.5630 0.4890 0.4260
8.331000 0.3600 0.3270 0.3190 0.3190 0.3250
8.365163 0.3490 0.3990 0.4360 0.5060 0.5460
8.399000 0.5610 0.6040 0.6380 0.6680 0.6940
8.433163 0.7160 0.7320 0.7380 0.7520 0.7690
8.467000 0.7730 0.7830 0.7980 0.7980 0.8020
8.501163 0.8080 0.8120 0.8130 0.8200 0.8220
8.536000 0.8250 0.8250 0.8270 0.8270 0.8270
8.570163 0.8270 0.8270 0.8250 0.8220 0.8130
8.604000 0.8050 0.7960 0.7860 0.7780 0.7690
8.638163 0.7570 0.7500 0.7490 0.7490 0.7490
8.672000 0.7500 0.7520 0.7590 0.7620 0.7670
8.706163 0.7710 0.7740 0.7760 0.7780 0.7780
8.740000 0.7810 0.7810 0.7810 0.7830 0.7830
8.774163 0.7830 0.7810 0.7810 0.7810 0.7810
8.809000 0.7810 0.7810 0.7790 0.7780 0.7740
8.843163 0.7730 0.7690 0.7640 0.7610 0.7550
8.877000 0.7500 0.7420 0.7320 0.7280 0.7200
8.911163 0.7090 0.7010 0.6910 0.6790 0.6630
8.945000 0.6510 0.6380 0.6160 0.6050 0.5980
8.979163 0.5760 0.5580 0.5540 0.5340 0.5170
9.014000 0.5000 0.4840 0.4590 0.4410 0.4120
9.048163 0.3720 0.3390 0.3100 0.2550 0.2200
9.082000 0.1790 0.1510 0.1160 0.0900 0.0630
9.116163 0.0510 0.0420 0.0340 0.0290 0.0250
9.150000 0.0230 0.0220 0.0220 0.0200 0.0200
9.184163 0.0200 0.0180 0.0180 0.0180 0.0180
9.219000 0.0200 0.0220 0.0290 0.0390 0.0540
9.253163 0.0750 0.1020 0.1290 0.1600 0.1910
9.287000 0.2180 0.2620 0.2950 0.3290 0.3600
9.321163 0.3780 0.4090 0.4300 0.4600 0.4810
9.355000 0.5030 0.5200 0.5460 0.5590 0.5750
9.389163 0.5780 0.5970 0.6100 0.6240 0.6360
9.423000 0.6460 0.6580 0.6700 0.6800 0.6960
9.457163 0.7030 0.7130 0.7180 0.7200 0.7300
9.492000 0.7350 0.7400 0.7440 0.7490 0.7490
9.526163 0.7520 0.7540 0.7540 0.7550 0.7550
9.560000 0.7590 0.7590 0.7620 0.7660 0.7690
9.594163 0.7710 0.7780 0.7810 0.7840 0.7880
9.628000 0.7900 0.7910 0.7930 0.7950 0.7960
9.662163 0.7980 0.8000 0.8020 0.8030 0.8050
9.697000 0.8070 0.8070 0.8100 0.8130 0.8170
9.731163 0.8190 0.8190 0.8200 0.8220 0.8250
9.765000 0.8270 0.8270 0.8290 0.8310 0.8310
9.799163 0.8320 0.8340 0.8360 0.8370 0.8390
9.833000 0.8390 0.8390 0.8390 0.8390 0.8390
9.867163 0.8390 0.8370 0.8360 0.8340 0.8320
9.901000 0.8290 0.8220 0.8150 0.8020 0.7960
9.935163 0.7840 0.7640 0.7550 0.7440 0.7280
9.970000 0.6940 0.6620 0.6410 0.5900 0.5290
10.004163 0.4760 0.4240 0.3850 0.3600 0.3460
10.038000 0.3360 0.3360 0.3370 0.3540 0.3900
10.072163 0.4330 0.4740 0.5110 0.5460 0.5800
10.106000 0.6100 0.6430 0.6720 0.7010 0.7200
10.140163 0.7400 0.7550 0.7740 0.7880 0.7960
10.175000 0.8050 0.8120 0.8170 0.8250 0.8340
10.209163 0.8440 0.8460 0.8480 0.8530 0.8560
10.243000 0.8600 0.8630 0.8660 0.8680 0.8700
10.277163 0.8720 0.8720 0.8730 0.8730 0.8750
10.311000 0.8750 0.8750 0.8770 0.8770 0.8750
10.345163 0.8750 0.8750 0.8750 0.8750 0.8750
10.380000 0.8730 0.8730 0.8720 0.8720 0.8680
10.414163 0.8630 0.8560 0.8530 0.8510 0.8480
10.448000 0.8310 0.8290 0.8270 0.8240 0.8200
10.482163 0.8100 0.8030 0.7950 0.7830 0.7710
10.516000 0.7640 0.7550 0.7450 0.7350 0.7210
10.550163 0.7060 0.6910 0.6740 0.6530 0.6260
10.584000 0.5980 0.5730 0.5390 0.4700 0.4380
10.618163 0.4040 0.3630 0.3120 0.2610 0.2250
10.653000 0.2030 0.1750 0.1580 0.1480 0.1380
10.687163 0.1340 0.1330 0.1340 0.1480 0.1720
10.721000 0.2030 0.2380 0.2740 0.3130 0.3540
10.755163 0.3870 0.4140 0.4620 0.4930 0.5150
10.789000 0.5230 0.5320 0.5350 0.5920 0.6530
10.823163 0.6770 0.6960 0.7150 0.7320 0.7470
10.858000 0.7610 0.7730 0.7860 0.7960 0.8070
10.892163 0.8150 0.8270 0.8340 0.8410 0.8480
10.926000 0.8530 0.8580 0.8650 0.8680 0.8730
10.960163 0.8770 0.8820 0.8890 0.8900 0.8920
10.994000 0.8990 0.8990 0.9010 0.9020 0.9060
11.028163 0.9060 0.9090 0.9110 0.9120 0.9140
11.062000 0.9160 0.9180 0.9180 0.9190 0.9210
11.096163 0.9210 0.9210 0.9230 0.9230 0.9240
11.131000 0.9260 0.9280 0.9280 0.9280 0.9300
11.165163 0.9300 0.9300 0.9310 0.9310 0.9300
11.199000 0.9300 0.9300 0.9300 0.9300 0.9300
11.233163 0.9300 0.9300 0.9300 0.9300 0.9300
11.267000 0.9300 0.9310 0.9300 0.9300 0.9300
11.301163 0.9300 0.9300 0.9300 0.9280 0.9280
11.336000 0.9280 0.9240 0.9230 0.9210 0.9210
11.370163 0.9190 0.9190 0.9180 0.9160 0.9140
11.404000 0.9140 0.9110 0.9090 0.9070 0.9060
11.438163 0.9040 0.9020 0.9010 0.8990 0.8970
11.472000 0.8920 0.8900 0.8890 0.8850 0.8820
11.506163 0.8770 0.8720 0.8680 0.8630 0.8600
11.540000 0.8560 0.8510 0.8490 0.8480 0.8390
11.574163 0.8370 0.8360 0.8290 0.8290 0.8220
11.609000 0.8150 0.8120 0.8100 0.8070 0.8020
11.643163 0.8000 0.7980 0.7910 0.7900 0.7860
11.677000 0.7830 0.7790 0.7780 0.7780 0.7740
11.711163 0.7730 0.7710 0.7670 0.7640 0.7640
11.745000 0.7620 0.7590 0.7540 0.7500 0.7450
11.779163 0.7380 0.7320 0.7300 0.7210 0.7060
11.814000 0.7010 0.6960 0.6870 0.6750 0.6680
11.848163 0.6650 0.6530 0.6410 0.6330 0.6190
11.882000 0.6090 0.5970 0.5850 0.5710 0.5590
11.916163 0.5460 0.5300 0.5100 0.4880 0.4600
11.950000 0.4470 0.4300 0.4110 0.4010 0.3800
11.984163 0.3560 0.3250 0.2930 0.2570 0.2370
12.019000 0.2180 0.1990 0.1790 0.1580 0.1390
12.053163 0.1210 0.1050 0.0900 0.0800 0.0730
12.087000 0.0640 0.0520 0.0510 0.0470 0.0420
12.121163 0.0390 0.0390 0.0390 0.0390 0.0390
12.155000 0.0390 0.0390 0.0390 0.0390 0.0420
12.189163 0.0440 0.0460 0.0510 0.0540 0.0590
12.223000 0.0610 0.0630 0.0640 0.0660 0.0680
12.257163 0.0690 0.0710 0.0710 0.0710 0.0710
12.292000 0.0710 0.0690 0.0660 0.0660 0.0610
12.326163 0.0590 0.0540 0.0510 0.0490 0.0490
12.360000 0.0440 0.0400 0.0390 0.0370 0.0350
12.394163 0.0340 0.0300 0.0290 0.0270 0.0270
12.428000 0.0270 0.0250 0.0250 0.0250 0.0230
12.462163 0.0230 0.0220 0.0220 0.0220 0.0200
12.497000 0.0200 0.0200 0.0200 0.0200 0.0200
12.531163 0.0200 0.0200 0.0200 0.0200 0.0200
12.565000 0.0200 0.0200 0.0200 0.0200 0.0200
12.599163 0.0200 0.0200 0.0200 0.0200 0.0200
12.633000 0.0220 0.0230 0.0290 0.0320 0.0390
12.667163 0.0420 0.0490 0.0540 0.0630 0.0690
12.701000 0.0780 0.0900 0.1050 0.1140 0.1310
12.735163 0.1460 0.1620 0.1770 0.1960 0.2130
12.770000 0.2320 0.2490 0.2660 0.2810 0.2950
12.804163 0.3310 0.3360 0.3440 0.3680 0.3800
12.838000 0.3920 0.4040 0.4210 0.4330 0.4550
12.872163 0.4650 0.4740 0.4890 0.4980 0.5050
12.906000 0.5180 0.5270 0.5440 0.5540 0.5660
12.940163 0.5750 0.5850 0.5970 0.6020 0.6100
12.975000 0.6160 0.6270 0.6380 0.6480 0.6530
13.009163 0.6580 0.6670 0.6750 0.6790 0.6860
13.043000 0.6960 0.6970 0.7010 0.7110 0.7150
13.077163 0.7200 0.7250 0.7320 0.7370 0.7380
13.111000 0.7420 0.7450 0.7500 0.7540 0.7590
13.145163 0.7620 0.7660 0.7670 0.7710 0.7730
13.180000 0.7760 0.7780 0.7790 0.7830 0.7860
13.214163 0.7880 0.7900 0.7930 0.7930 0.7960
13.248000 0.8000 0.8000 0.8020 0.8030 0.8070
13.282163 0.8080 0.8100 0.8130 0.8150 0.8150
13.316000 0.8150 0.8170 0.8170 0.8190 0.8190
13.350163 0.8220 0.8240 0.8250 0.8270 0.8270
13.384000 0.8290 0.8310 0.8310 0.8310 0.8320
13.418163 0.8320 0.8320 0.8340 0.8340 0.8360
13.453000 0.8360 0.8360 0.8370 0.8360 0.8370
13.487163 0.8370 0.8370 0.8370 0.8370 0.8370
13.521000 0.8370 0.8370 0.8390 0.8390 0.8390
13.555163 0.8390 0.8390 0.8370 0.8370 0.8370
13.589000 0.8370 0.8370 0.8370 0.8370 0.8370
13.623163 0.8370 0.8370 0.8370 0.8370 0.8370
13.658000 0.8370 0.8370 0.8370 0.8370 0.8370
13.692163 0.8370 0.8370 0.8370 0.8370 0.8370
13.726000 0.8370 0.8370 0.8370 0.8370 0.8370
13.760163 0.8370 0.8370 0.8370 0.8370 0.8370
13.794000 0.8370 0.8370 0.8370 0.8370 0.8370
13.828163 0.8370 0.8370 0.8370 0.8370 0.8370
13.862000 0.8370 0.8370 0.8370 0.8370 0.8370
13.896163 0.8370 0.8370 0.8370 0.8370 0.8370
13.931000 0.8370 0.8370 0.8370 0.8370 0.8370
13.965163 0.8370 0.8370 0.8370 0.8370 0.8370
13.999000 0.8370 0.8370 0.8370 0.8370 0.8370
14.033163 0.8370 0.8370 0.8370 0.8370 0.8370
14.067000 0.8370 0.8370 0.8370 0.8370 0.8370
14.101163 0.8370 0.8370 0.8390 0.8370 0.8370
14.136000 0.8370 0.8370 0.8370 0.8360 0.8360
14.170163 0.8360 0.8360 0.8360 0.8360 0.8360
14.204000 0.8360 0.8360 0.8340 0.8340 0.8340
14.238163 0.8340 0.8320 0.8320 0.8310 0.8310
14.272000 0.8310 0.8310 0.8290 0.8270 0.8270
14.306163 0.8270 0.8250 0.8250 0.8250 0.8240
14.340000 0.8220 0.8220 0.8200 0.8200 0.8200
14.374163 0.8200 0.8200 0.8190 0.8190 0.8190
14.409000 0.8170 0.8150 0.8150 0.8130 0.8130
14.443163 0.8130 0.8100 0.8100 0.8100 0.8100
14.477000 0.8100 0.8080 0.8080 0.8080 0.8080
14.511163 0.8070 0.8070 0.8070 0.8070 0.8050
14.545000 0.8020 0.8020 0.8000 0.8000 0.7980
14.579163 0.7980 0.7980 0.7960 0.7960 0.7960
14.614000 0.7950 0.7930 0.7910 0.7900 0.7880
14.648163 0.7860 0.7840 0.7790 0.7780 0.7780
14.682000 0.7780 0.7780 0.7760 0.7740 0.7730
14.716163 0.7730 0.7710 0.7710 0.7710 0.7690
14.750000 0.7690 0.7690 0.7690 0.7690 0.7670
14.784163 0.7670 0.7660 0.7660 0.7660 0.7640
14.819000 0.7620 0.7610 0.7610 0.7590 0.7570
14.853163 0.7570 0.7550 0.7550 0.7540 0.7520
14.887000 0.7500 0.7500 0.7490 0.7490 0.7490
14.921163 0.7470 0.7440 0.7420 0.7400 0.7380
14.955000 0.7380 0.7370 0.7350 0.7350 0.7330
14.989163 0.7330 0.7320 0.7320 0.7330 0.7320
15.023000 0.7300 0.7300 0.7300 0.7300 0.7280
15.057163 0.7280 0.7260 0.7250 0.7250 0.7230
15.092000 0.7210 0.7180 0.7160 0.7130 0.7130
15.126163 0.7110 0.7110 0.7110 0.7090 0.7090
15.160000 0.7080 0.7080 0.7060 0.7060 0.7040
15.194163 0.7030 0.7010 0.6990 0.6990 0.6970
15.228000 0.6970 0.6960 0.6960 0.6960 0.6940
15.262163 0.6920 0.6910 0.6910 0.6890 0.6870
15.297000 0.6870 0.6860 0.6860 0.6840 0.6840
15.331163 0.6840 0.6840 0.6840 0.6840 0.6820
15.365000 0.6820 0.6800 0.6800 0.6790 0.6790
15.399163 0.6790 0.6790 0.6770 0.6770 0.6750
15.433000 0.6750 0.6750 0.6740 0.6720 0.6720
15.467163 0.6700 0.6700 0.6680 0.6680 0.6670
15.501000 0.6670 0.6670 0.6670 0.6670 0.6650
15.535163 0.6630 0.6630 0.6630 0.6620 0.6620
15.570000 0.6620 0.6620 0.6620 0.6620 0.6600
15.604163 0.6600 0.6580 0.6560 0.6550 0.6550
15.638000 0.6550 0.6550 0.6530 0.6530 0.6510
15.672163 0.6500 0.6500 0.6500 0.6500 0.6510
15.706000 0.6510 0.6500 0.6500 0.6500 0.6500
15.740163 0.6480 0.6480 0.6430 0.6410 0.6410
15.775000 0.6410 0.6410 0.6410 0.6390 0.6390
15.809163 0.6390 0.6390 0.6390 0.6390 0.6380
15.843000 0.6380 0.6390 0.6380 0.6380 0.6390
15.877163 0.6390 0.6390 0.6380 0.6380 0.6380
15.911000 0.6380 0.6380 0.6380 0.6380 0.6380
15.945163 0.6380 0.6380 0.6380 0.6380 0.6380
15.980000 0.6380 0.6360
##END=
