##TITLE=METHYL ARSONIC ACID
$$ AMERICAN SMELTING AND REFINING
##JCAMP-DX=4.24
##DATA TYPE=INFRARED SPECTRUM
##CLASS=COBLENTZ
##ORIGIN=WYANDOTTE CHEMICALS CORP., WYANDOTTE, MICHIGAN, USA
##OWNER=COBLENTZ SOCIETY
Collection (C) 2018 copyright by the U.S. Secretary of Commerce
on behalf of the United States of America. All rights reserved.
##DATE=Not specified, most likely prior to 1970
##NAMES=methylarsonic acid
##CAS REGISTRY NO=124-58-3
##MOLFORM=C H5 O3 As
##SOURCE REFERENCE=COBLENTZ NO. 247
##$NIST SOURCE=COBLENTZ
##$NIST IMAGE=cob247
##SPECTROMETER/DATA SYSTEM=Not specified, most likely a prism, grating, or hybrid spectrometer.
##STATE=SOLID (MULL)
##SAMPLING PROCEDURE=TRANSMISSION
##RESOLUTION=4
##DATA PROCESSING=DIGITIZED BY NIST FROM HARD COPY
##XUNITS=MICROMETERS
##YUNITS=TRANSMITTANCE
##XFACTOR=1.000000
##YFACTOR=1
##DELTAX=000.006481
##FIRSTX=2.248
##LASTX=16.001
##FIRSTY=1.025
##MAXX=16.001
##MINX=2.248
##MAXY=1.027
##MINY=0.017
##NPOINTS=2123
##XYDATA=(X++(Y..Y))
2.248000 1.0250 1.0250 1.0250 1.0250 1.0250
2.280420 1.0250 1.0250 1.0270 1.0270 1.0270
2.313000 1.0270 1.0270 1.0270 1.0270 1.0270
2.345420 1.0270 1.0270 1.0270 1.0270 1.0270
2.378000 1.0270 1.0270 1.0270 1.0270 1.0270
2.410420 1.0270 1.0270 1.0270 1.0270 1.0270
2.443000 1.0270 1.0270 1.0270 1.0270 1.0270
2.475420 1.0270 1.0270 1.0270 1.0270 1.0270
2.507000 1.0270 1.0270 1.0270 1.0270 1.0270
2.539420 1.0270 1.0270 1.0270 1.0270 1.0270
2.572000 1.0270 1.0270 1.0270 1.0270 1.0270
2.604420 1.0270 1.0270 1.0270 1.0270 1.0270
2.637000 1.0270 1.0270 1.0270 1.0270 1.0270
2.669420 1.0270 1.0270 1.0270 1.0270 1.0250
2.702000 1.0250 1.0250 1.0250 1.0250 1.0240
2.734420 1.0240 1.0240 1.0240 1.0240 1.0220
2.767000 1.0220 1.0220 1.0220 1.0220 1.0220
2.799420 1.0220 1.0220 1.0220 1.0210 1.0210
2.831000 1.0210 1.0210 1.0210 1.0210 1.0210
2.863420 1.0210 1.0210 1.0210 1.0190 1.0190
2.896000 1.0170 1.0190 1.0170 1.0160 1.0160
2.928420 1.0160 1.0140 1.0140 1.0120 1.0120
2.961000 1.0110 1.0110 1.0110 1.0110 1.0090
2.993420 1.0040 1.0010 0.9960 0.9910 0.9770
3.026000 0.9690 0.9460 0.9250 0.9060 0.8850
3.058420 0.8640 0.8390 0.8130 0.7830 0.7470
3.091000 0.7210 0.7000 0.6770 0.6610 0.6450
3.123420 0.6290 0.6010 0.5880 0.5690 0.5560
3.156000 0.5380 0.5160 0.5000 0.4910 0.4830
3.188420 0.4720 0.4620 0.4430 0.4250 0.4170
3.220000 0.4060 0.3930 0.3780 0.3640 0.3490
3.252420 0.3300 0.3170 0.2940 0.2790 0.2650
3.285000 0.2540 0.2410 0.2280 0.2080 0.1970
3.317420 0.1770 0.1390 0.1060 0.0720 0.0560
3.350000 0.0400 0.0250 0.0210 0.0210 0.0220
3.382420 0.0250 0.0270 0.0250 0.0220 0.0210
3.415000 0.0170 0.0170 0.0190 0.0190 0.0190
3.447420 0.0210 0.0240 0.0250 0.0250 0.0240
3.480000 0.0250 0.0250 0.0270 0.0270 0.0270
3.512420 0.0320 0.0400 0.0530 0.0660 0.0760
3.544000 0.0820 0.0900 0.1000 0.1050 0.1060
3.576420 0.1100 0.1160 0.1160 0.1260 0.1350
3.609000 0.1340 0.1320 0.1260 0.1220 0.1220
3.641420 0.1220 0.1270 0.1290 0.1320 0.1350
3.674000 0.1350 0.1270 0.1270 0.1320 0.1340
3.706420 0.1350 0.1390 0.1420 0.1470 0.1480
3.739000 0.1520 0.1550 0.1600 0.1660 0.1730
3.771420 0.1770 0.1840 0.1950 0.1970 0.2020
3.804000 0.2050 0.2110 0.2160 0.2230 0.2260
3.836420 0.2310 0.2340 0.2370 0.2420 0.2470
3.868000 0.2500 0.2580 0.2630 0.2700 0.2760
3.900420 0.2790 0.2860 0.2890 0.2990 0.3040
3.933000 0.3070 0.3100 0.3090 0.3020 0.3020
3.965420 0.3020 0.3120 0.3150 0.3200 0.3220
3.998000 0.3250 0.3230 0.3200 0.3180 0.3130
4.030420 0.3130 0.3200 0.3200 0.3120 0.3070
4.063000 0.3050 0.3040 0.3040 0.2990 0.2960
4.095420 0.2880 0.2790 0.2730 0.2680 0.2600
4.128000 0.2540 0.2440 0.2330 0.2280 0.2180
4.160420 0.2100 0.2030 0.1950 0.1860 0.1740
4.192000 0.1630 0.1520 0.1420 0.1390 0.1350
4.224420 0.1350 0.1310 0.1270 0.1290 0.1290
4.257000 0.1320 0.1340 0.1370 0.1390 0.1420
4.289420 0.1450 0.1480 0.1480 0.1480 0.1480
4.322000 0.1450 0.1470 0.1500 0.1550 0.1560
4.354420 0.1600 0.1600 0.1560 0.1500 0.1500
4.387000 0.1480 0.1480 0.1580 0.1610 0.1650
4.419420 0.1680 0.1710 0.1790 0.1870 0.1970
4.452000 0.1990 0.2000 0.2050 0.2100 0.2150
4.484420 0.2230 0.2290 0.2370 0.2440 0.2490
4.517000 0.2600 0.2660 0.2710 0.2810 0.2860
4.549420 0.2920 0.2960 0.2990 0.3050 0.3170
4.581000 0.3230 0.3300 0.3390 0.3460 0.3520
4.613420 0.3550 0.3600 0.3650 0.3700 0.3770
4.646000 0.3830 0.3930 0.3980 0.4040 0.4090
4.678420 0.4200 0.4350 0.4410 0.4460 0.4530
4.711000 0.4560 0.4620 0.4670 0.4740 0.4830
4.743420 0.4910 0.4960 0.5040 0.5080 0.5110
4.776000 0.5160 0.5220 0.5300 0.5420 0.5460
4.808420 0.5500 0.5560 0.5610 0.5670 0.5720
4.841000 0.5740 0.5760 0.5770 0.5790 0.5820
4.873420 0.5850 0.5880 0.5900 0.5930 0.5970
4.905000 0.5980 0.6000 0.6030 0.6050 0.6080
4.937420 0.6110 0.6110 0.6130 0.6140 0.6140
4.970000 0.6160 0.6160 0.6180 0.6210 0.6260
5.002420 0.6310 0.6350 0.6400 0.6400 0.6420
5.035000 0.6470 0.6500 0.6550 0.6550 0.6580
5.067420 0.6610 0.6630 0.6660 0.6690 0.6710
5.100000 0.6730 0.6740 0.6760 0.6790 0.6860
5.132420 0.6990 0.7020 0.7100 0.7110 0.7100
5.165000 0.7100 0.7110 0.7110 0.7150 0.7160
5.197420 0.7110 0.7110 0.7110 0.7130 0.7150
5.229000 0.7180 0.7210 0.7230 0.7290 0.7340
5.261420 0.7370 0.7410 0.7440 0.7450 0.7470
5.294000 0.7470 0.7500 0.7550 0.7580 0.7600
5.326420 0.7600 0.7600 0.7620 0.7620 0.7600
5.359000 0.7570 0.7570 0.7600 0.7650 0.7650
5.391420 0.7660 0.7680 0.7660 0.7630 0.7650
5.424000 0.7700 0.7650 0.7680 0.7700 0.7710
5.456420 0.7700 0.7630 0.7630 0.7660 0.7710
5.489000 0.7700 0.7650 0.7650 0.7680 0.7760
5.521420 0.7790 0.7780 0.7780 0.7780 0.7780
5.553000 0.7730 0.7680 0.7650 0.7600 0.7570
5.585420 0.7540 0.7570 0.7680 0.7660 0.7630
5.618000 0.7570 0.7540 0.7540 0.7540 0.7540
5.650420 0.7550 0.7630 0.7680 0.7680 0.7580
5.683000 0.7520 0.7500 0.7500 0.7470 0.7440
5.715420 0.7440 0.7470 0.7500 0.7500 0.7500
5.748000 0.7500 0.7440 0.7440 0.7490 0.7580
5.780420 0.7600 0.7540 0.7420 0.7360 0.7420
5.813000 0.7390 0.7370 0.7340 0.7330 0.7210
5.845420 0.7210 0.7240 0.7280 0.7290 0.7330
5.878000 0.7340 0.7370 0.7340 0.7260 0.7180
5.910420 0.7150 0.7150 0.7200 0.7290 0.7290
5.942000 0.7240 0.7230 0.7230 0.7210 0.7200
5.974420 0.7200 0.7160 0.7110 0.7050 0.7000
6.007000 0.6990 0.6940 0.6920 0.6940 0.6970
6.039420 0.6970 0.7020 0.7000 0.6860 0.6790
6.072000 0.6790 0.6810 0.6870 0.6840 0.6810
6.104420 0.6760 0.6730 0.6730 0.6690 0.6660
6.137000 0.6650 0.6610 0.6550 0.6550 0.6530
6.169420 0.6520 0.6500 0.6480 0.6470 0.6440
6.202000 0.6420 0.6390 0.6370 0.6340 0.6320
6.234420 0.6290 0.6270 0.6240 0.6190 0.6160
6.266000 0.6110 0.6100 0.6010 0.6100 0.6030
6.298420 0.6010 0.6000 0.6000 0.5980 0.5950
6.331000 0.5850 0.5790 0.5760 0.5770 0.5790
6.363420 0.5800 0.5820 0.5840 0.5790 0.5640
6.396000 0.5640 0.5710 0.5760 0.5770 0.5770
6.428420 0.5770 0.5770 0.5770 0.5770 0.5740
6.461000 0.5760 0.5790 0.5800 0.5790 0.5760
6.493420 0.5760 0.5770 0.5790 0.5820 0.5880
6.526000 0.5880 0.5870 0.5790 0.5840 0.5930
6.558420 0.6000 0.5930 0.5820 0.5820 0.5840
6.590000 0.5920 0.5970 0.6010 0.6010 0.5950
6.622420 0.5920 0.5900 0.5880 0.5900 0.5880
6.655000 0.5870 0.5820 0.5710 0.5660 0.5590
6.687420 0.5500 0.5330 0.5160 0.5000 0.4900
6.720000 0.4780 0.4570 0.4410 0.4230 0.3940
6.752420 0.3470 0.2710 0.1950 0.1690 0.1600
6.785000 0.1520 0.1400 0.1320 0.1320 0.1390
6.817420 0.1470 0.1550 0.1610 0.1660 0.1790
6.850000 0.1920 0.2050 0.2200 0.2340 0.2500
6.882420 0.2660 0.2860 0.3050 0.3150 0.3330
6.914000 0.3550 0.3830 0.4120 0.4410 0.4690
6.946420 0.4910 0.5220 0.5350 0.5550 0.5660
6.979000 0.5760 0.5850 0.5930 0.6010 0.6050
7.011420 0.6110 0.6110 0.6140 0.6140 0.6160
7.044000 0.6160 0.6180 0.6210 0.6260 0.6290
7.076420 0.6290 0.6320 0.6420 0.6440 0.6450
7.109000 0.6500 0.6520 0.6550 0.6550 0.6560
7.141420 0.6600 0.6560 0.6470 0.6350 0.6160
7.174000 0.5930 0.5720 0.5110 0.4800 0.4490
7.206420 0.4270 0.3930 0.3720 0.3310 0.3020
7.238000 0.2810 0.2810 0.2960 0.3340 0.3670
7.270420 0.4040 0.4350 0.4540 0.4720 0.4800
7.303000 0.4900 0.5270 0.5630 0.5900 0.6210
7.335420 0.6340 0.6470 0.6550 0.6630 0.6680
7.368000 0.6740 0.6810 0.6820 0.6860 0.6890
7.400420 0.6940 0.6950 0.6990 0.7000 0.7000
7.433000 0.7020 0.7030 0.7030 0.7050 0.7070
7.465420 0.7070 0.7100 0.7130 0.7210 0.7260
7.498000 0.7290 0.7290 0.7260 0.7260 0.7260
7.530420 0.7260 0.7290 0.7290 0.7290 0.7260
7.563000 0.7240 0.7210 0.7160 0.7130 0.7100
7.595420 0.7050 0.6990 0.6920 0.6810 0.6710
7.627000 0.6650 0.6560 0.6450 0.6310 0.6160
7.659420 0.5840 0.5640 0.5430 0.5270 0.5250
7.692000 0.5320 0.5550 0.5820 0.6000 0.6160
7.724420 0.6240 0.6320 0.6440 0.6530 0.6580
7.757000 0.6580 0.6530 0.6500 0.6470 0.6450
7.789420 0.6320 0.6240 0.6210 0.6080 0.5980
7.822000 0.5880 0.5850 0.5820 0.5820 0.5800
7.854420 0.5800 0.5790 0.5790 0.5760 0.5770
7.887000 0.5760 0.5720 0.5690 0.5690 0.5670
7.919420 0.5660 0.5630 0.5640 0.5640 0.5660
7.951000 0.5720 0.5790 0.5800 0.5820 0.5840
7.983420 0.5880 0.5900 0.5900 0.5920 0.5920
8.016000 0.5920 0.5900 0.5880 0.5870 0.5850
8.048420 0.5840 0.5800 0.5790 0.5760 0.5720
8.081000 0.5640 0.5550 0.5450 0.5330 0.5210
8.113420 0.5090 0.5030 0.4950 0.4800 0.4660
8.146000 0.4510 0.4330 0.4170 0.3990 0.3810
8.178420 0.3620 0.3440 0.3230 0.3070 0.3020
8.211000 0.2960 0.2880 0.2830 0.2780 0.2760
8.243420 0.2760 0.2760 0.2760 0.2790 0.2830
8.275000 0.2860 0.2910 0.2970 0.3070 0.3180
8.307420 0.3300 0.3410 0.3490 0.3620 0.3700
8.340000 0.3800 0.3880 0.3990 0.4110 0.4220
8.372420 0.4320 0.4400 0.4490 0.4570 0.4690
8.405000 0.4780 0.4900 0.4960 0.5080 0.5170
8.437420 0.5290 0.5370 0.5420 0.5450 0.5500
8.470000 0.5560 0.5660 0.5690 0.5720 0.5760
8.502420 0.5790 0.5870 0.5970 0.6000 0.6030
8.535000 0.6140 0.6180 0.6220 0.6270 0.6340
8.567420 0.6400 0.6480 0.6580 0.6680 0.6730
8.599000 0.6770 0.6790 0.6840 0.6900 0.6920
8.631420 0.6940 0.7000 0.7070 0.7150 0.7210
8.664000 0.7280 0.7310 0.7360 0.7420 0.7440
8.696420 0.7450 0.7490 0.7570 0.7700 0.7760
8.729000 0.7830 0.7880 0.7970 0.7990 0.8000
8.761420 0.8020 0.8020 0.8050 0.8070 0.8150
8.794000 0.8220 0.8250 0.8260 0.8260 0.8260
8.826420 0.8260 0.8220 0.8220 0.8230 0.8230
8.859000 0.8250 0.8260 0.8300 0.8310 0.8330
8.891420 0.8340 0.8380 0.8410 0.8440 0.8490
8.924000 0.8490 0.8460 0.8430 0.8440 0.8470
8.956420 0.8510 0.8540 0.8600 0.8640 0.8650
8.988000 0.8680 0.8700 0.8720 0.8730 0.8730
9.020420 0.8750 0.8770 0.8800 0.8830 0.8860
9.053000 0.8880 0.8880 0.8880 0.8890 0.8890
9.085420 0.8890 0.8880 0.8880 0.8910 0.8980
9.118000 0.9010 0.9020 0.8990 0.9020 0.9020
9.150420 0.9060 0.9070 0.9090 0.9060 0.9060
9.183000 0.9090 0.9110 0.9120 0.9120 0.9140
9.215420 0.9140 0.9090 0.9090 0.9110 0.9110
9.248000 0.9140 0.9120 0.9120 0.9120 0.9140
9.280420 0.9150 0.9150 0.9170 0.9190 0.9220
9.312000 0.9200 0.9190 0.9200 0.9220 0.9230
9.344420 0.9250 0.9280 0.9300 0.9280 0.9280
9.377000 0.9220 0.9220 0.9230 0.9300 0.9300
9.409420 0.9300 0.9280 0.9220 0.9200 0.9200
9.442000 0.9250 0.9320 0.9330 0.9320 0.9280
9.474420 0.9250 0.9220 0.9230 0.9250 0.9230
9.507000 0.9230 0.9220 0.9170 0.9150 0.9200
9.539420 0.9190 0.9190 0.9150 0.9150 0.9150
9.572000 0.9170 0.9200 0.9220 0.9200 0.9120
9.604420 0.9140 0.9170 0.9200 0.9230 0.9190
9.636000 0.9140 0.9190 0.9170 0.9140 0.9110
9.668420 0.9020 0.9070 0.9110 0.9070 0.9020
9.701000 0.8990 0.8990 0.9040 0.9040 0.9040
9.733420 0.9040 0.9020 0.9010 0.9010 0.8990
9.766000 0.8980 0.8980 0.8980 0.8940 0.9010
9.798420 0.9010 0.8960 0.8940 0.8930 0.8930
9.831000 0.8930 0.8930 0.8910 0.8890 0.8880
9.863420 0.8830 0.8830 0.8810 0.8830 0.8880
9.896000 0.8880 0.8880 0.8880 0.8880 0.8880
9.928420 0.8850 0.8830 0.8830 0.8810 0.8800
9.960000 0.8800 0.8780 0.8750 0.8730 0.8730
9.992420 0.8720 0.8670 0.8650 0.8640 0.8620
10.025000 0.8570 0.8540 0.8520 0.8490 0.8460
10.057420 0.8440 0.8410 0.8380 0.8340 0.8310
10.090000 0.8300 0.8260 0.8230 0.8200 0.8180
10.122420 0.8130 0.8100 0.8050 0.8040 0.8020
10.155000 0.7960 0.7880 0.7840 0.7780 0.7730
10.187420 0.7650 0.7580 0.7500 0.7470 0.7440
10.220000 0.7330 0.7230 0.7160 0.7130 0.7080
10.252420 0.7000 0.6940 0.6840 0.6790 0.6730
10.285000 0.6650 0.6600 0.6550 0.6470 0.6390
10.317420 0.6320 0.6260 0.6190 0.6140 0.6030
10.349000 0.5970 0.5920 0.5880 0.5800 0.5710
10.381420 0.5630 0.5500 0.5350 0.5160 0.5060
10.414000 0.5030 0.4980 0.4900 0.4830 0.4770
10.446420 0.4640 0.4540 0.4480 0.4350 0.4200
10.479000 0.4060 0.3930 0.3800 0.3650 0.3520
10.511420 0.3390 0.3260 0.3200 0.3090 0.3000
10.544000 0.2910 0.2780 0.2660 0.2550 0.2470
10.576420 0.2390 0.2260 0.2130 0.2050 0.1950
10.609000 0.1920 0.1890 0.1870 0.1810 0.1690
10.641420 0.1600 0.1520 0.1420 0.1420 0.1400
10.673000 0.1400 0.1400 0.1400 0.1390 0.1390
10.705420 0.1370 0.1370 0.1370 0.1370 0.1400
10.738000 0.1470 0.1520 0.1550 0.1550 0.1560
10.770420 0.1550 0.1560 0.1630 0.1730 0.1870
10.803000 0.1940 0.2000 0.2030 0.2080 0.2110
10.835420 0.2160 0.2210 0.2280 0.2420 0.2490
10.868000 0.2570 0.2660 0.2730 0.2760 0.2790
10.900420 0.2880 0.2990 0.3050 0.3120 0.3180
10.933000 0.3230 0.3300 0.3330 0.3360 0.3390
10.965420 0.3430 0.3470 0.3520 0.3540 0.3550
10.997000 0.3550 0.3570 0.3590 0.3590 0.3600
11.029420 0.3600 0.3600 0.3600 0.3600 0.3590
11.062000 0.3590 0.3570 0.3550 0.3540 0.3520
11.094420 0.3460 0.3410 0.3390 0.3380 0.3330
11.127000 0.3280 0.3250 0.3220 0.3200 0.3180
11.159420 0.3180 0.3170 0.3170 0.3130 0.3100
11.192000 0.3070 0.3070 0.3050 0.3070 0.3120
11.224420 0.3120 0.3100 0.3100 0.3120 0.3130
11.257000 0.3180 0.3230 0.3260 0.3310 0.3340
11.289420 0.3380 0.3410 0.3440 0.3470 0.3490
11.321000 0.3510 0.3520 0.3620 0.3680 0.3780
11.353420 0.3830 0.3850 0.3860 0.3880 0.3890
11.386000 0.3910 0.3930 0.3940 0.3940 0.3930
11.418420 0.3930 0.3930 0.3910 0.3910 0.3890
11.451000 0.3890 0.3890 0.3880 0.3880 0.3880
11.483420 0.3890 0.3930 0.3960 0.4010 0.4090
11.516000 0.4150 0.4220 0.4250 0.4300 0.4410
11.548420 0.4440 0.4490 0.4530 0.4560 0.4620
11.581000 0.4720 0.4750 0.4780 0.4850 0.4900
11.613420 0.4960 0.5030 0.5080 0.5110 0.5120
11.645000 0.5120 0.5140 0.5160 0.5170 0.5190
11.677420 0.5210 0.5220 0.5240 0.5250 0.5270
11.710000 0.5290 0.5300 0.5320 0.5320 0.5320
11.742420 0.5320 0.5300 0.5300 0.5290 0.5290
11.775000 0.5270 0.5270 0.5250 0.5250 0.5250
11.807420 0.5240 0.5220 0.5210 0.5170 0.5170
11.840000 0.5160 0.5140 0.5140 0.5120 0.5110
11.872420 0.5090 0.5090 0.5090 0.5080 0.5060
11.905000 0.5000 0.5000 0.4980 0.4950 0.4910
11.937420 0.4900 0.4870 0.4820 0.4780 0.4750
11.970000 0.4720 0.4700 0.4690 0.4670 0.4660
12.002420 0.4620 0.4610 0.4570 0.4560 0.4510
12.034000 0.4460 0.4400 0.4320 0.4250 0.4230
12.066420 0.4230 0.4220 0.4190 0.4120 0.4040
12.099000 0.4010 0.3990 0.3980 0.3960 0.3910
12.131420 0.3860 0.3810 0.3800 0.3770 0.3750
12.164000 0.3670 0.3590 0.3540 0.3470 0.3440
12.196420 0.3410 0.3360 0.3330 0.3260 0.3220
12.229000 0.3150 0.3100 0.3070 0.3020 0.3000
12.261420 0.2920 0.2830 0.2790 0.2760 0.2700
12.294000 0.2680 0.2650 0.2630 0.2580 0.2520
12.326420 0.2490 0.2420 0.2390 0.2340 0.2280
12.358000 0.2260 0.2240 0.2230 0.2210 0.2130
12.390420 0.2080 0.2050 0.2000 0.1950 0.1900
12.423000 0.1890 0.1870 0.1870 0.1860 0.1840
12.455420 0.1810 0.1790 0.1740 0.1680 0.1650
12.488000 0.1630 0.1600 0.1560 0.1530 0.1520
12.520420 0.1470 0.1440 0.1400 0.1390 0.1370
12.553000 0.1370 0.1340 0.1290 0.1240 0.1210
12.585420 0.1190 0.1180 0.1180 0.1140 0.1110
12.618000 0.1050 0.1030 0.1010 0.1000 0.0980
12.650420 0.0930 0.0880 0.0850 0.0820 0.0820
12.682000 0.0800 0.0770 0.0690 0.0640 0.0610
12.714420 0.0610 0.0590 0.0580 0.0580 0.0560
12.747000 0.0560 0.0550 0.0530 0.0480 0.0480
12.779420 0.0460 0.0450 0.0430 0.0430 0.0420
12.812000 0.0400 0.0400 0.0400 0.0420 0.0420
12.844420 0.0420 0.0420 0.0420 0.0420 0.0380
12.877000 0.0380 0.0380 0.0380 0.0380 0.0380
12.909420 0.0380 0.0380 0.0380 0.0400 0.0420
12.942000 0.0450 0.0480 0.0530 0.0590 0.0660
12.974420 0.0720 0.0790 0.0850 0.0900 0.0980
13.006000 0.1050 0.1130 0.1190 0.1240 0.1310
13.038420 0.1390 0.1470 0.1500 0.1530 0.1580
13.071000 0.1630 0.1690 0.1740 0.1770 0.1820
13.103420 0.1860 0.1900 0.1990 0.2070 0.2130
13.136000 0.2160 0.2240 0.2330 0.2390 0.2450
13.168420 0.2500 0.2580 0.2650 0.2700 0.2710
13.201000 0.2810 0.2860 0.2940 0.3000 0.3020
13.233420 0.3050 0.3100 0.3120 0.3150 0.3200
13.266000 0.3250 0.3340 0.3360 0.3410 0.3460
13.298420 0.3510 0.3510 0.3520 0.3540 0.3520
13.331000 0.3520 0.3540 0.3620 0.3650 0.3680
13.363420 0.3720 0.3750 0.3800 0.3830 0.3850
13.395000 0.3850 0.3860 0.3880 0.3980 0.4020
13.427420 0.4070 0.4120 0.4140 0.4150 0.4170
13.460000 0.4190 0.4190 0.4190 0.4200 0.4200
13.492420 0.4230 0.4270 0.4300 0.4300 0.4300
13.525000 0.4320 0.4300 0.4320 0.4350 0.4380
13.557420 0.4400 0.4430 0.4460 0.4510 0.4530
13.590000 0.4540 0.4540 0.4560 0.4590 0.4620
13.622420 0.4660 0.4700 0.4750 0.4770 0.4780
13.655000 0.4800 0.4820 0.4880 0.4910 0.4930
13.687420 0.4950 0.4960 0.4980 0.5030 0.5060
13.719000 0.5120 0.5140 0.5140 0.5140 0.5140
13.751420 0.5160 0.5170 0.5220 0.5300 0.5320
13.784000 0.5330 0.5350 0.5350 0.5370 0.5380
13.816420 0.5380 0.5400 0.5420 0.5420 0.5430
13.849000 0.5430 0.5460 0.5500 0.5580 0.5580
13.881420 0.5590 0.5610 0.5610 0.5640 0.5670
13.914000 0.5710 0.5760 0.5800 0.5880 0.5950
13.946420 0.6000 0.6030 0.6060 0.6100 0.6100
13.979000 0.6130 0.6180 0.6210 0.6260 0.6310
14.011420 0.6370 0.6400 0.6420 0.6470 0.6500
14.043000 0.6530 0.6560 0.6600 0.6630 0.6680
14.075420 0.6690 0.6690 0.6710 0.6730 0.6790
14.108000 0.6890 0.6940 0.6990 0.7000 0.7030
14.140420 0.7070 0.7080 0.7100 0.7110 0.7160
14.173000 0.7200 0.7230 0.7210 0.7230 0.7240
14.205420 0.7260 0.7280 0.7310 0.7340 0.7390
14.238000 0.7410 0.7420 0.7440 0.7450 0.7470
14.270420 0.7470 0.7500 0.7520 0.7540 0.7550
14.303000 0.7550 0.7570 0.7570 0.7620 0.7630
14.335420 0.7630 0.7650 0.7660 0.7660 0.7700
14.367000 0.7730 0.7750 0.7750 0.7730 0.7750
14.399420 0.7760 0.7780 0.7790 0.7810 0.7830
14.432000 0.7840 0.7860 0.7860 0.7880 0.7910
14.464420 0.7910 0.7940 0.7960 0.7970 0.7990
14.497000 0.8000 0.8000 0.8000 0.7970 0.7970
14.529420 0.7970 0.7970 0.7990 0.7990 0.8000
14.562000 0.8020 0.8020 0.8000 0.8020 0.8020
14.594420 0.8020 0.8040 0.8050 0.8100 0.8130
14.627000 0.8130 0.8130 0.8130 0.8120 0.8100
14.659420 0.8100 0.8090 0.8100 0.8120 0.8150
14.692000 0.8180 0.8200 0.8220 0.8250 0.8250
14.724420 0.8220 0.8200 0.8200 0.8180 0.8200
14.756000 0.8200 0.8180 0.8180 0.8180 0.8200
14.788420 0.8200 0.8220 0.8220 0.8230 0.8230
14.821000 0.8230 0.8250 0.8250 0.8250 0.8250
14.853420 0.8260 0.8260 0.8260 0.8260 0.8260
14.886000 0.8260 0.8260 0.8260 0.8280 0.8280
14.918420 0.8300 0.8300 0.8300 0.8300 0.8300
14.951000 0.8300 0.8280 0.8280 0.8280 0.8260
14.983420 0.8250 0.8230 0.8200 0.8180 0.8150
15.016000 0.8120 0.8070 0.8000 0.7920 0.7860
15.048420 0.7760 0.7660 0.7620 0.7500 0.7490
15.080000 0.7450 0.7410 0.7330 0.7290 0.7290
15.112420 0.7310 0.7360 0.7370 0.7390 0.7440
15.145000 0.7470 0.7540 0.7580 0.7660 0.7700
15.177420 0.7730 0.7760 0.7790 0.7840 0.7920
15.210000 0.8040 0.8070 0.8170 0.8220 0.8280
15.242420 0.8310 0.8330 0.8380 0.8390 0.8410
15.275000 0.8390 0.8360 0.8340 0.8340 0.8340
15.307420 0.8390 0.8390 0.8380 0.8360 0.8360
15.340000 0.8360 0.8340 0.8340 0.8310 0.8310
15.372420 0.8330 0.8360 0.8380 0.8390 0.8410
15.404000 0.8430 0.8440 0.8440 0.8430 0.8410
15.436420 0.8360 0.8330 0.8300 0.8250 0.8220
15.469000 0.8200 0.8150 0.8130 0.8150 0.8200
15.501420 0.8200 0.8180 0.8130 0.8070 0.8000
15.534000 0.7990 0.7940 0.7890 0.7810 0.7730
15.566420 0.7680 0.7600 0.7540 0.7470 0.7360
15.599000 0.7210 0.7080 0.6970 0.6900 0.6890
15.631420 0.6810 0.6730 0.6660 0.6610 0.6520
15.664000 0.6480 0.6480 0.6520 0.6550 0.6600
15.696420 0.6630 0.6650 0.6710 0.6760 0.6810
15.728000 0.6870 0.6950 0.7020 0.7080 0.7130
15.760420 0.7200 0.7260 0.7330 0.7360 0.7420
15.793000 0.7450 0.7470 0.7500 0.7540 0.7580
15.825420 0.7650 0.7730 0.7750 0.7750 0.7750
15.858000 0.7750 0.7760 0.7780 0.7780 0.7760
15.890420 0.7750 0.7730 0.7730 0.7710 0.7700
15.923000 0.7660 0.7620 0.7570 0.7520 0.7470
15.955420 0.7470 0.7490 0.7570 0.7570 0.7570
15.988000 0.7550 0.7500 0.7550
##END=
