##TITLE=Beta-IODOPROPIONIC ACID
##JCAMP-DX=4.24
##DATA TYPE=INFRARED SPECTRUM
##CLASS=COBLENTZ
##ORIGIN=WYANDOTTE CHEMICALS CORP., WYANDOTTE, MICHIGAN, USA
##OWNER=COBLENTZ SOCIETY
Collection (C) 2018 copyright by the U.S. Secretary of Commerce
on behalf of the United States of America. All rights reserved.
##DATE=Not specified, most likely prior to 1970
##NAMES=3-iodopropanoic acid
##CAS REGISTRY NO=141-76-4
##MOLFORM=C3 H5 I O2
##SOURCE REFERENCE=COBLENTZ NO. 1329
##$NIST SOURCE=COBLENTZ
##$NIST IMAGE=cob1329
##SPECTROMETER/DATA SYSTEM=Not specified, most likely a prism, grating, or hybrid spectrometer.
##STATE=SOLID (MINERAL OIL MULL)
##SAMPLING PROCEDURE=TRANSMISSION
##RESOLUTION=4
##DATA PROCESSING=DIGITIZED BY NIST FROM HARD COPY
##XUNITS=MICROMETERS
##YUNITS=TRANSMITTANCE
##XFACTOR=1.000000
##YFACTOR=1
##DELTAX=000.006809
##FIRSTX=2.02
##LASTX=15.9936
##FIRSTY=0.329
##MAXX=15.9936
##MINX=2.02
##MAXY=0.938
##MINY=0.018
##NPOINTS=2053
##XYDATA=(X++(Y..Y))
2.020000 0.3290 0.3310 0.3320 0.3340 0.3360
2.054063 0.3370 0.3390 0.3390 0.3410 0.3410
2.089000 0.3410 0.3410 0.3410 0.3410 0.3420
2.123063 0.3420 0.3420 0.3440 0.3440 0.3440
2.157000 0.3440 0.3460 0.3460 0.3460 0.3480
2.191063 0.3490 0.3490 0.3510 0.3510 0.3530
2.225000 0.3530 0.3540 0.3540 0.3590 0.3590
2.259063 0.3610 0.3650 0.3680 0.3700 0.3710
2.293000 0.3710 0.3710 0.3710 0.3730 0.3760
2.327063 0.3800 0.3820 0.3820 0.3820 0.3800
2.361000 0.3800 0.3800 0.3820 0.3850 0.3900
2.395063 0.3920 0.3950 0.3980 0.4000 0.4000
2.429000 0.4020 0.4050 0.4050 0.4050 0.4050
2.463063 0.4070 0.4090 0.4120 0.4140 0.4150
2.497000 0.4150 0.4150 0.4150 0.4170 0.4170
2.531063 0.4190 0.4210 0.4220 0.4260 0.4310
2.565000 0.4340 0.4360 0.4410 0.4410 0.4430
2.599063 0.4430 0.4430 0.4440 0.4460 0.4480
2.633000 0.4490 0.4510 0.4530 0.4560 0.4580
2.667063 0.4610 0.4610 0.4660 0.4700 0.4730
2.701000 0.4770 0.4800 0.4830 0.4880 0.4920
2.735063 0.4940 0.4950 0.5020 0.5040 0.5040
2.769000 0.5040 0.5070 0.5070 0.5070 0.5110
2.803063 0.5120 0.5190 0.5190 0.5190 0.5210
2.838000 0.5220 0.5220 0.5240 0.5240 0.5260
2.872063 0.5260 0.5280 0.5290 0.5310 0.5330
2.906000 0.5330 0.5330 0.5330 0.5330 0.5330
2.940063 0.5340 0.5330 0.5330 0.5330 0.5330
2.974000 0.5330 0.5330 0.5330 0.5330 0.5330
3.008063 0.5330 0.5310 0.5290 0.5240 0.5190
3.042000 0.5140 0.5050 0.4970 0.4880 0.4750
3.076063 0.4650 0.4560 0.4490 0.4390 0.4270
3.110000 0.4070 0.3970 0.3870 0.3760 0.3610
3.144063 0.3510 0.3440 0.3360 0.3250 0.3150
3.178000 0.3070 0.3030 0.2950 0.2860 0.2760
3.212063 0.2680 0.2660 0.2630 0.2580 0.2520
3.246000 0.2490 0.2460 0.2390 0.2320 0.2250
3.280063 0.2150 0.2020 0.1910 0.1830 0.1780
3.314000 0.1660 0.1470 0.1220 0.0960 0.0710
3.348063 0.0490 0.0320 0.0230 0.0220 0.0220
3.382000 0.0200 0.0180 0.0180 0.0180 0.0180
3.416063 0.0200 0.0200 0.0200 0.0230 0.0300
3.450000 0.0320 0.0350 0.0370 0.0370 0.0350
3.484063 0.0320 0.0320 0.0320 0.0330 0.0620
3.518000 0.0930 0.1270 0.1680 0.2150 0.2970
3.552063 0.3240 0.3460 0.3560 0.3760 0.3830
3.587000 0.3880 0.3920 0.3950 0.3950 0.3950
3.621063 0.3930 0.3930 0.3930 0.3920 0.3920
3.655000 0.3920 0.3920 0.3920 0.3950 0.3970
3.689063 0.3980 0.4040 0.4100 0.4140 0.4190
3.723000 0.4410 0.4410 0.4290 0.4070 0.3930
3.757063 0.3920 0.3920 0.3920 0.3930 0.3930
3.791000 0.3950 0.4000 0.4050 0.4140 0.4190
3.825063 0.4210 0.4240 0.4320 0.4390 0.4440
3.859000 0.4440 0.4460 0.4460 0.4510 0.4510
3.893063 0.4510 0.4510 0.4510 0.4460 0.4380
3.927000 0.4380 0.4360 0.4360 0.4390 0.4440
3.961063 0.4460 0.4510 0.4600 0.4630 0.4700
3.995000 0.4750 0.4830 0.4920 0.4990 0.5140
4.029063 0.5160 0.5190 0.5210 0.5210 0.5240
4.063000 0.5240 0.5210 0.5160 0.5140 0.5140
4.097063 0.5160 0.5170 0.5190 0.5210 0.5220
4.131000 0.5280 0.5310 0.5330 0.5340 0.5410
4.165063 0.5440 0.5510 0.5550 0.5600 0.5610
4.199000 0.5650 0.5680 0.5700 0.5720 0.5750
4.233063 0.5770 0.5770 0.5750 0.5720 0.5700
4.268000 0.5700 0.5700 0.5700 0.5720 0.5800
4.302063 0.5840 0.5850 0.5890 0.5890 0.5940
4.336000 0.6010 0.6020 0.6060 0.6110 0.6170
4.370063 0.6230 0.6280 0.6310 0.6360 0.6400
4.404000 0.6430 0.6450 0.6510 0.6530 0.6550
4.438063 0.6530 0.6510 0.6510 0.6500 0.6510
4.472000 0.6530 0.6600 0.6620 0.6650 0.6670
4.506063 0.6650 0.6620 0.6620 0.6620 0.6630
4.540000 0.6650 0.6670 0.6700 0.6720 0.6740
4.574063 0.6770 0.6790 0.6800 0.6840 0.6850
4.608000 0.6870 0.6890 0.6910 0.6940 0.6940
4.642063 0.6960 0.6970 0.6990 0.7010 0.7010
4.676000 0.7020 0.7020 0.7060 0.7090 0.7090
4.710063 0.7090 0.7090 0.7090 0.7110 0.7130
4.744000 0.7160 0.7210 0.7230 0.7240 0.7280
4.778063 0.7310 0.7360 0.7400 0.7430 0.7480
4.812000 0.7580 0.7600 0.7640 0.7670 0.7670
4.846063 0.7650 0.7620 0.7600 0.7580 0.7580
4.880000 0.7620 0.7650 0.7690 0.7690 0.7700
4.914063 0.7720 0.7740 0.7750 0.7750 0.7750
4.948000 0.7770 0.7750 0.7770 0.7770 0.7790
4.982063 0.7790 0.7800 0.7820 0.7840 0.7840
5.017000 0.7860 0.7890 0.7960 0.8010 0.8030
5.051063 0.8040 0.8060 0.8090 0.8110 0.8130
5.085000 0.8140 0.8140 0.8140 0.8130 0.8130
5.119063 0.8130 0.8130 0.8130 0.8160 0.8180
5.153000 0.8200 0.8230 0.8260 0.8280 0.8280
5.187063 0.8280 0.8300 0.8330 0.8370 0.8400
5.221000 0.8420 0.8430 0.8450 0.8480 0.8500
5.255063 0.8530 0.8550 0.8600 0.8640 0.8650
5.289000 0.8670 0.8670 0.8690 0.8690 0.8700
5.323063 0.8720 0.8760 0.8770 0.8790 0.8790
5.357000 0.8790 0.8790 0.8810 0.8820 0.8870
5.391063 0.8910 0.8940 0.8980 0.9010 0.9030
5.425000 0.9030 0.9030 0.9030 0.9060 0.9080
5.459063 0.9150 0.9180 0.9200 0.9210 0.9210
5.493000 0.9210 0.9210 0.9250 0.9320 0.9330
5.527063 0.9330 0.9370 0.9370 0.9380 0.9380
5.561000 0.9370 0.9350 0.9280 0.9200 0.9180
5.595063 0.9160 0.9160 0.9210 0.9210 0.9200
5.629000 0.9150 0.9130 0.9060 0.9030 0.8990
5.663063 0.8940 0.8840 0.8670 0.8370 0.8110
5.697000 0.7820 0.7600 0.7360 0.6840 0.6290
5.731063 0.5600 0.5220 0.4850 0.4120 0.3490
5.766000 0.3030 0.2580 0.2340 0.2080 0.1880
5.800063 0.1730 0.1590 0.1510 0.1470 0.1400
5.834000 0.1350 0.1340 0.1320 0.1300 0.1300
5.868063 0.1300 0.1300 0.1300 0.1250 0.1250
5.902000 0.1130 0.1030 0.1030 0.1030 0.1080
5.936063 0.1180 0.1290 0.1420 0.1520 0.1610
5.970000 0.1730 0.1850 0.2020 0.2220 0.2470
6.004063 0.2750 0.2850 0.2920 0.2980 0.3100
6.038000 0.3250 0.3460 0.3650 0.3920 0.4020
6.072063 0.4050 0.4100 0.4210 0.4360 0.4480
6.106000 0.4600 0.4630 0.4710 0.4820 0.4920
6.140063 0.5070 0.5190 0.5340 0.5440 0.5510
6.174000 0.5550 0.5580 0.5650 0.5730 0.5870
6.208063 0.5940 0.5950 0.5990 0.6010 0.6040
6.242000 0.6140 0.6190 0.6240 0.6260 0.6290
6.276063 0.6310 0.6330 0.6340 0.6400 0.6450
6.310000 0.6500 0.6510 0.6550 0.6570 0.6600
6.344063 0.6600 0.6600 0.6600 0.6530 0.6570
6.378000 0.6630 0.6680 0.6750 0.6800 0.6820
6.412063 0.6800 0.6790 0.6740 0.6700 0.6670
6.446000 0.6670 0.6680 0.6750 0.6820 0.6890
6.480063 0.6940 0.6990 0.6940 0.6920 0.6870
6.515000 0.6820 0.6820 0.6820 0.6890 0.6920
6.549063 0.6960 0.7010 0.7060 0.7090 0.7110
6.583000 0.7070 0.7070 0.7090 0.7130 0.7180
6.617063 0.7190 0.7190 0.7190 0.7180 0.7130
6.651000 0.7090 0.6970 0.6920 0.6890 0.6820
6.685063 0.6740 0.6620 0.6500 0.6340 0.6170
6.719000 0.5970 0.5770 0.5530 0.5360 0.5040
6.753063 0.4850 0.4650 0.4070 0.3200 0.2590
6.787000 0.2460 0.2300 0.2080 0.1900 0.1830
6.821063 0.1830 0.1880 0.1960 0.2000 0.2050
6.855000 0.2190 0.2220 0.2250 0.2300 0.2340
6.889063 0.2350 0.2350 0.2340 0.2300 0.2290
6.923000 0.2300 0.2370 0.2470 0.2750 0.2920
6.957063 0.3100 0.3250 0.3360 0.3440 0.3420
6.991000 0.3410 0.3360 0.3360 0.3360 0.3390
7.025063 0.3420 0.3540 0.3610 0.3800 0.3980
7.059000 0.4210 0.4430 0.4700 0.4920 0.5110
7.093063 0.5120 0.5110 0.5020 0.4940 0.4710
7.127000 0.4360 0.3870 0.3440 0.3100 0.2850
7.161063 0.2710 0.2680 0.2710 0.2830 0.2980
7.196000 0.3150 0.3310 0.3360 0.3390 0.3360
7.230063 0.3240 0.3070 0.2920 0.2880 0.2930
7.264000 0.3240 0.3580 0.3970 0.4390 0.4730
7.298063 0.4970 0.5140 0.5240 0.5380 0.5600
7.332000 0.5840 0.6070 0.6210 0.6330 0.6410
7.366063 0.6410 0.6430 0.6450 0.6450 0.6380
7.400000 0.6280 0.6110 0.5920 0.5700 0.5460
7.434063 0.5280 0.5090 0.5000 0.4920 0.4830
7.468000 0.4820 0.4820 0.4880 0.5290 0.5560
7.502063 0.5870 0.6170 0.6460 0.6740 0.6940
7.536000 0.7060 0.7210 0.7310 0.7350 0.7400
7.570063 0.7470 0.7600 0.7620 0.7700 0.7720
7.604000 0.7720 0.7700 0.7690 0.7670 0.7640
7.638063 0.7600 0.7520 0.7500 0.7470 0.7350
7.672000 0.7130 0.6970 0.6870 0.6740 0.6670
7.706063 0.6620 0.6600 0.6600 0.6620 0.6650
7.740000 0.6670 0.6700 0.6700 0.6670 0.6630
7.774063 0.6600 0.6550 0.6460 0.6340 0.6230
7.808000 0.6090 0.5940 0.5750 0.5560 0.5360
7.842063 0.5140 0.5020 0.4900 0.4660 0.4390
7.876000 0.4120 0.3850 0.3560 0.3250 0.2930
7.910063 0.2730 0.2580 0.2510 0.2490 0.2470
7.945000 0.2410 0.2350 0.2340 0.2320 0.2300
7.979063 0.2290 0.2150 0.1980 0.1830 0.1640
8.013000 0.1460 0.1270 0.1080 0.0950 0.0930
8.047063 0.0980 0.1130 0.1320 0.1490 0.1610
8.081000 0.1710 0.1810 0.1900 0.2000 0.2080
8.115063 0.2200 0.2320 0.2470 0.2860 0.3020
8.149000 0.3190 0.3370 0.3530 0.3650 0.3760
8.183063 0.3920 0.4050 0.4190 0.4290 0.4410
8.217000 0.4510 0.4610 0.4700 0.4800 0.4880
8.251063 0.4970 0.5110 0.5160 0.5260 0.5340
8.285000 0.5410 0.5500 0.5560 0.5650 0.5720
8.319063 0.5770 0.5820 0.5870 0.5940 0.6010
8.353000 0.6060 0.6110 0.6160 0.6190 0.6240
8.387063 0.6290 0.6340 0.6380 0.6410 0.6410
8.421000 0.6430 0.6460 0.6500 0.6510 0.6500
8.455063 0.6460 0.6380 0.6210 0.6010 0.5700
8.489000 0.5440 0.5220 0.5090 0.4940 0.4920
8.523063 0.4940 0.5410 0.5610 0.5900 0.6040
8.557000 0.6240 0.6330 0.6400 0.6460 0.6550
8.591063 0.6620 0.6680 0.6740 0.6790 0.6820
8.625000 0.6890 0.6960 0.7020 0.7130 0.7210
8.659063 0.7300 0.7330 0.7380 0.7400 0.7450
8.694000 0.7550 0.7640 0.7650 0.7690 0.7690
8.728063 0.7690 0.7690 0.7690 0.7690 0.7670
8.762000 0.7570 0.7520 0.7470 0.7300 0.6910
8.796063 0.6460 0.5940 0.5260 0.4940 0.4600
8.830000 0.4020 0.3610 0.3530 0.3590 0.3880
8.864063 0.4170 0.4560 0.4920 0.5510 0.5770
8.898000 0.5990 0.6160 0.6290 0.6380 0.6530
8.932063 0.6670 0.6740 0.6790 0.6840 0.6890
8.966000 0.6920 0.6970 0.7070 0.7180 0.7240
9.000063 0.7310 0.7380 0.7430 0.7480 0.7570
9.034000 0.7580 0.7600 0.7620 0.7640 0.7650
9.068063 0.7690 0.7690 0.7700 0.7700 0.7700
9.102000 0.7720 0.7720 0.7740 0.7750 0.7790
9.136063 0.7800 0.7820 0.7820 0.7840 0.7840
9.170000 0.7860 0.7860 0.7890 0.7910 0.7920
9.204063 0.7940 0.7920 0.7940 0.7970 0.7990
9.238000 0.7990 0.8010 0.8010 0.8030 0.8040
9.272063 0.8060 0.8110 0.8130 0.8140 0.8130
9.306000 0.8110 0.8130 0.8140 0.8160 0.8180
9.340063 0.8130 0.8130 0.8130 0.8140 0.8160
9.375000 0.8160 0.8160 0.8160 0.8160 0.8160
9.409063 0.8160 0.8180 0.8200 0.8200 0.8200
9.443000 0.8200 0.8210 0.8210 0.8210 0.8230
9.477063 0.8210 0.8210 0.8210 0.8210 0.8210
9.511000 0.8210 0.8210 0.8210 0.8210 0.8230
9.545063 0.8230 0.8210 0.8210 0.8210 0.8210
9.579000 0.8180 0.8140 0.8090 0.8080 0.8040
9.613063 0.8010 0.7970 0.7890 0.7840 0.7750
9.647000 0.7740 0.7740 0.7790 0.7820 0.7870
9.681063 0.7920 0.7990 0.8030 0.8080 0.8160
9.715000 0.8210 0.8230 0.8230 0.8230 0.8230
9.749063 0.8260 0.8310 0.8380 0.8430 0.8470
9.783000 0.8500 0.8520 0.8520 0.8500 0.8500
9.817063 0.8500 0.8520 0.8530 0.8570 0.8600
9.851000 0.8640 0.8650 0.8690 0.8700 0.8720
9.885063 0.8720 0.8700 0.8720 0.8720 0.8720
9.919000 0.8740 0.8770 0.8810 0.8810 0.8820
9.953063 0.8810 0.8820 0.8820 0.8840 0.8840
9.987000 0.8860 0.8870 0.8890 0.8910 0.8910
10.021063 0.8910 0.8930 0.8930 0.8910 0.8910
10.055000 0.8930 0.8930 0.8930 0.8930 0.8940
10.089063 0.8940 0.8960 0.8960 0.8940 0.8940
10.124000 0.8930 0.8910 0.8910 0.8890 0.8890
10.158063 0.8870 0.8860 0.8810 0.8790 0.8770
10.192000 0.8740 0.8720 0.8700 0.8690 0.8650
10.226063 0.8640 0.8620 0.8600 0.8590 0.8530
10.260000 0.8520 0.8500 0.8480 0.8450 0.8400
10.294063 0.8350 0.8310 0.8280 0.8280 0.8260
10.328000 0.8250 0.8230 0.8200 0.8200 0.8160
10.362063 0.8140 0.8130 0.8110 0.8090 0.8030
10.396000 0.7990 0.7960 0.7890 0.7840 0.7820
10.430063 0.7750 0.7720 0.7690 0.7640 0.7550
10.464000 0.7500 0.7470 0.7430 0.7360 0.7280
10.498063 0.7160 0.7060 0.6990 0.6870 0.6770
10.532000 0.6630 0.6550 0.6510 0.6430 0.6310
10.566063 0.6170 0.6020 0.5940 0.5820 0.5720
10.600000 0.5580 0.5440 0.5290 0.5120 0.5050
10.634063 0.4970 0.4830 0.4710 0.4600 0.4480
10.668000 0.4320 0.4140 0.3920 0.3750 0.3590
10.702063 0.3410 0.3200 0.3080 0.2920 0.2760
10.736000 0.2610 0.2540 0.2510 0.2510 0.2520
10.770063 0.2580 0.2640 0.2760 0.2900 0.3120
10.804000 0.3320 0.3530 0.3730 0.3930 0.4120
10.838063 0.4320 0.4510 0.4700 0.4870 0.5170
10.873000 0.5260 0.5310 0.5340 0.5380 0.5390
10.907063 0.5410 0.5410 0.5410 0.5360 0.5290
10.941000 0.5240 0.5210 0.5190 0.5140 0.5070
10.975063 0.5020 0.4950 0.4850 0.4750 0.4650
11.009000 0.4610 0.4530 0.4480 0.4380 0.4270
11.043063 0.4190 0.4050 0.3930 0.3760 0.3650
11.077000 0.3490 0.3340 0.3170 0.3000 0.2970
11.111063 0.2980 0.3020 0.3190 0.3360 0.3530
11.145000 0.3660 0.3780 0.3880 0.3980 0.4050
11.179063 0.4120 0.4170 0.4220 0.4270 0.4310
11.213000 0.4320 0.4380 0.4410 0.4430 0.4460
11.247063 0.4490 0.4510 0.4550 0.4580 0.4600
11.281000 0.4610 0.4630 0.4660 0.4680 0.4710
11.315063 0.4750 0.4800 0.4830 0.4850 0.4880
11.349000 0.4900 0.4940 0.4970 0.5040 0.5070
11.383063 0.5090 0.5140 0.5190 0.5210 0.5220
11.417000 0.5280 0.5340 0.5390 0.5410 0.5430
11.451063 0.5460 0.5510 0.5510 0.5560 0.5630
11.485000 0.5650 0.5680 0.5720 0.5750 0.5750
11.519063 0.5770 0.5770 0.5780 0.5820 0.5870
11.554000 0.5920 0.5950 0.5970 0.5990 0.6010
11.588063 0.6020 0.6060 0.6110 0.6120 0.6160
11.622000 0.6190 0.6230 0.6260 0.6280 0.6310
11.656063 0.6310 0.6310 0.6330 0.6340 0.6400
11.690000 0.6450 0.6500 0.6500 0.6530 0.6570
11.724063 0.6600 0.6600 0.6600 0.6620 0.6650
11.758000 0.6680 0.6740 0.6750 0.6770 0.6800
11.792063 0.6820 0.6850 0.6870 0.6890 0.6920
11.826000 0.6940 0.7010 0.7020 0.7040 0.7040
11.860063 0.7060 0.7090 0.7110 0.7130 0.7160
11.894000 0.7180 0.7210 0.7240 0.7280 0.7300
11.928063 0.7300 0.7300 0.7310 0.7330 0.7350
11.962000 0.7380 0.7380 0.7400 0.7400 0.7410
11.996063 0.7470 0.7480 0.7500 0.7530 0.7580
12.030000 0.7600 0.7640 0.7640 0.7650 0.7670
12.064063 0.7670 0.7690 0.7700 0.7720 0.7740
12.098000 0.7740 0.7740 0.7740 0.7740 0.7740
12.132063 0.7750 0.7770 0.7770 0.7790 0.7790
12.166000 0.7820 0.7840 0.7870 0.7890 0.7890
12.200063 0.7890 0.7910 0.7910 0.7910 0.7920
12.234000 0.7990 0.8010 0.8030 0.8040 0.8060
12.268063 0.8080 0.8080 0.8080 0.8080 0.8060
12.303000 0.8060 0.8060 0.8060 0.8060 0.8040
12.337063 0.8040 0.8040 0.8040 0.8030 0.8030
12.371000 0.8010 0.7990 0.7970 0.7920 0.7870
12.405063 0.7840 0.7770 0.7700 0.7670 0.7600
12.439000 0.7530 0.7500 0.7450 0.7310 0.7160
12.473063 0.6990 0.6840 0.6670 0.6480 0.6290
12.507000 0.6090 0.5850 0.5610 0.5410 0.5120
12.541063 0.5040 0.4940 0.4750 0.4630 0.4530
12.575000 0.4440 0.4410 0.4410 0.4430 0.4530
12.609063 0.4580 0.4680 0.4820 0.4970 0.5340
12.643000 0.5550 0.5720 0.5870 0.5950 0.6070
12.677063 0.6240 0.6380 0.6510 0.6570 0.6650
12.711000 0.6700 0.6750 0.6840 0.6910 0.6970
12.745063 0.7040 0.7090 0.7140 0.7210 0.7240
12.779000 0.7300 0.7330 0.7350 0.7400 0.7410
12.813063 0.7410 0.7430 0.7470 0.7530 0.7550
12.847000 0.7570 0.7600 0.7640 0.7650 0.7670
12.881063 0.7690 0.7690 0.7700 0.7700 0.7720
12.915000 0.7750 0.7770 0.7790 0.7800 0.7800
12.949063 0.7820 0.7840 0.7870 0.7890 0.7910
12.983000 0.7910 0.7920 0.7940 0.7960 0.7960
13.017063 0.7970 0.8010 0.8030 0.8030 0.8030
13.052000 0.8040 0.8040 0.8060 0.8060 0.8090
13.086063 0.8110 0.8130 0.8130 0.8130 0.8140
13.120000 0.8140 0.8140 0.8140 0.8160 0.8180
13.154063 0.8180 0.8180 0.8180 0.8180 0.8180
13.188000 0.8200 0.8200 0.8200 0.8200 0.8200
13.222063 0.8200 0.8200 0.8200 0.8200 0.8200
13.256000 0.8200 0.8200 0.8200 0.8200 0.8200
13.290063 0.8210 0.8210 0.8210 0.8210 0.8210
13.324000 0.8210 0.8210 0.8210 0.8210 0.8210
13.358063 0.8200 0.8200 0.8180 0.8200 0.8200
13.392000 0.8200 0.8200 0.8200 0.8200 0.8200
13.426063 0.8210 0.8210 0.8200 0.8160 0.8130
13.460000 0.8130 0.8130 0.8130 0.8160 0.8160
13.494063 0.8160 0.8140 0.8140 0.8130 0.8110
13.528000 0.8090 0.8080 0.8060 0.8060 0.8060
13.562063 0.8060 0.8060 0.8060 0.8080 0.8090
13.596000 0.8110 0.8110 0.8090 0.8080 0.8080
13.630063 0.8080 0.8080 0.8080 0.8080 0.8090
13.664000 0.8090 0.8090 0.8110 0.8090 0.8090
13.698063 0.8090 0.8090 0.8080 0.8060 0.8060
13.732000 0.8040 0.8040 0.8040 0.8040 0.8030
13.766063 0.8030 0.8030 0.8010 0.7990 0.7990
13.801000 0.7970 0.7960 0.7960 0.7940 0.7940
13.835063 0.7920 0.7920 0.7920 0.7920 0.7910
13.869000 0.7910 0.7890 0.7890 0.7870 0.7870
13.903063 0.7890 0.7920 0.7990 0.8040 0.8060
13.937000 0.8130 0.8180 0.8210 0.8260 0.8300
13.971063 0.8330 0.8370 0.8380 0.8420 0.8450
14.005000 0.8480 0.8500 0.8530 0.8600 0.8620
14.039063 0.8640 0.8640 0.8650 0.8690 0.8720
14.073000 0.8760 0.8790 0.8790 0.8810 0.8810
14.107063 0.8810 0.8810 0.8820 0.8840 0.8890
14.141000 0.8890 0.8910 0.8910 0.8910 0.8930
14.175063 0.8930 0.8960 0.8980 0.8980 0.8980
14.209000 0.8990 0.8990 0.8990 0.9010 0.9030
14.243063 0.9030 0.9030 0.9030 0.9030 0.9030
14.277000 0.9030 0.9030 0.9040 0.9030 0.9010
14.311063 0.9010 0.9010 0.9030 0.9030 0.9030
14.345000 0.9030 0.9060 0.9060 0.9060 0.9060
14.379063 0.9060 0.9040 0.9030 0.9010 0.9010
14.413000 0.8990 0.8990 0.8980 0.8960 0.8960
14.447063 0.8960 0.8960 0.8960 0.8960 0.8960
14.482000 0.8960 0.8940 0.8940 0.8940 0.8930
14.516063 0.8930 0.8910 0.8910 0.8890 0.8860
14.550000 0.8840 0.8820 0.8820 0.8820 0.8810
14.584063 0.8810 0.8790 0.8740 0.8720 0.8700
14.618000 0.8690 0.8670 0.8670 0.8670 0.8670
14.652063 0.8670 0.8670 0.8670 0.8670 0.8650
14.686000 0.8640 0.8620 0.8600 0.8600 0.8590
14.720063 0.8530 0.8530 0.8520 0.8500 0.8500
14.754000 0.8470 0.8450 0.8430 0.8430 0.8420
14.788063 0.8400 0.8370 0.8370 0.8350 0.8350
14.822000 0.8330 0.8330 0.8310 0.8310 0.8300
14.856063 0.8280 0.8260 0.8250 0.8250 0.8230
14.890000 0.8210 0.8210 0.8210 0.8200 0.8200
14.924063 0.8180 0.8140 0.8060 0.8010 0.7940
14.958000 0.7870 0.7800 0.7720 0.7720 0.7670
14.992063 0.7600 0.7520 0.7470 0.7410 0.7300
15.026000 0.7210 0.7160 0.7060 0.7010 0.6990
15.060063 0.6990 0.7010 0.7070 0.7090 0.7160
15.094000 0.7260 0.7350 0.7410 0.7480 0.7580
15.128063 0.7620 0.7650 0.7690 0.7700 0.7700
15.162000 0.7690 0.7650 0.7640 0.7620 0.7620
15.196063 0.7600 0.7580 0.7580 0.7570 0.7530
15.231000 0.7500 0.7480 0.7450 0.7410 0.7380
15.265063 0.7380 0.7330 0.7300 0.7240 0.7230
15.299000 0.7190 0.7160 0.7130 0.7090 0.7070
15.333063 0.7020 0.7020 0.7010 0.6990 0.6960
15.367000 0.6910 0.6870 0.6840 0.6820 0.6790
15.401063 0.6770 0.6750 0.6740 0.6700 0.6670
15.435000 0.6630 0.6600 0.6580 0.6530 0.6510
15.469063 0.6500 0.6460 0.6410 0.6400 0.6380
15.503000 0.6360 0.6330 0.6310 0.6290 0.6280
15.537063 0.6240 0.6230 0.6190 0.6170 0.6140
15.571000 0.6140 0.6120 0.6120 0.6110 0.6070
15.605063 0.6060 0.6020 0.6010 0.5970 0.5940
15.639000 0.5890 0.5820 0.5780 0.5750 0.5730
15.673063 0.5720 0.5700 0.5670 0.5610 0.5550
15.707000 0.5530 0.5500 0.5460 0.5430 0.5390
15.741063 0.5380 0.5360 0.5340 0.5330 0.5310
15.775000 0.5290 0.5280 0.5260 0.5220 0.5190
15.809063 0.5160 0.5120 0.5070 0.5050 0.5040
15.843000 0.5020 0.4990 0.4970 0.4970 0.4970
15.877063 0.4950 0.4950 0.4940 0.4920 0.4920
15.911000 0.4900 0.4880 0.4870 0.4870 0.4870
15.945063 0.4830 0.4820 0.4800 0.4780 0.4780
15.980000 0.4770 0.4710 0.4770
##END=
