##TITLE=1,2,3,4-DIEPOXYBUTANE
##JCAMP-DX=4.24
##DATA TYPE=INFRARED SPECTRUM
##CLASS=COBLENTZ
##ORIGIN=DOW CHEMICAL COMPANY
##OWNER=COBLENTZ SOCIETY
Collection (C) 2018 copyright by the U.S. Secretary of Commerce
on behalf of the United States of America. All rights reserved.
##DATE=Not specified, most likely prior to 1970
##CAS REGISTRY NO=1464-53-5
##MOLFORM=C4 H6 O2
##SOURCE REFERENCE=COBLENTZ NO. 1759
##$NIST SOURCE=COBLENTZ
##$NIST IMAGE=cob1759
##SPECTROMETER/DATA SYSTEM=Not specified, most likely a prism, grating, or hybrid spectrometer.
##STATE=SOLUTION (10% CCl4 FOR 5000-1330, 10% CS2 FOR 1330-625 CM^-^1)
##PATH LENGTH=0.0123 CM, 0.0119 CM
$$SPECTRAL CONTAMINATION DUE TO CCl4 AROUND 1550 CM^-^1
##SAMPLING PROCEDURE=TRANSMISSION
##RESOLUTION=4
##DATA PROCESSING=DIGITIZED BY NIST FROM HARD COPY
##XUNITS=MICROMETERS
##YUNITS=TRANSMITTANCE
##XFACTOR=1.000000
##YFACTOR=1
##DELTAX=000.006869
##FIRSTX=2.076
##LASTX=15.6976
##FIRSTY=0.897
##MAXX=15.6976
##MINX=2.076
##MAXY=0.921
##MINY=0
##NPOINTS=1984
##XYDATA=(X++(Y..Y))
2.076000 0.8970 0.8970 0.8950 0.8940 0.8940
2.110365 0.8920 0.8900 0.8900 0.8870 0.8830
2.144000 0.8770 0.8610 0.8530 0.8480 0.8440
2.178365 0.8460 0.8540 0.8630 0.8720 0.8770
2.213000 0.8800 0.8800 0.8800 0.8800 0.8800
2.247365 0.8800 0.8800 0.8800 0.8800 0.8780
2.282000 0.8780 0.8780 0.8770 0.8750 0.8730
2.316365 0.8720 0.8700 0.8680 0.8650 0.8630
2.350000 0.8630 0.8630 0.8630 0.8630 0.8650
2.384365 0.8700 0.8720 0.8720 0.8730 0.8750
2.419000 0.8770 0.8780 0.8800 0.8800 0.8800
2.453365 0.8820 0.8820 0.8820 0.8830 0.8830
2.488000 0.8850 0.8850 0.8850 0.8850 0.8850
2.522365 0.8850 0.8850 0.8850 0.8850 0.8830
2.556000 0.8820 0.8800 0.8730 0.8730 0.8730
2.590365 0.8720 0.8720 0.8720 0.8720 0.8730
2.625000 0.8750 0.8750 0.8750 0.8770 0.8770
2.659365 0.8770 0.8770 0.8750 0.8750 0.8730
2.694000 0.8720 0.8700 0.8650 0.8630 0.8650
2.728365 0.8660 0.8680 0.8680 0.8660 0.8650
2.763000 0.8540 0.8540 0.8480 0.8390 0.8370
2.797365 0.8310 0.8270 0.8190 0.8130 0.8130
2.831000 0.8130 0.8130 0.8150 0.8270 0.8390
2.865365 0.8410 0.8440 0.8490 0.8510 0.8530
2.900000 0.8540 0.8610 0.8660 0.8700 0.8720
2.934365 0.8720 0.8730 0.8730 0.8730 0.8730
2.969000 0.8750 0.8780 0.8820 0.8830 0.8850
3.003365 0.8870 0.8890 0.8890 0.8890 0.8890
3.037000 0.8890 0.8890 0.8890 0.8890 0.8890
3.071365 0.8890 0.8890 0.8890 0.8890 0.8890
3.106000 0.8890 0.8890 0.8890 0.8870 0.8870
3.140365 0.8850 0.8850 0.8830 0.8830 0.8820
3.175000 0.8800 0.8750 0.8720 0.8610 0.8580
3.209365 0.8490 0.8050 0.7660 0.7610 0.7330
3.243000 0.7040 0.6510 0.6040 0.5290 0.5290
3.277365 0.5320 0.5350 0.5420 0.5420 0.5420
3.312000 0.4240 0.3070 0.3050 0.3070 0.3800
3.346365 0.4300 0.6390 0.6790 0.7080 0.7350
3.381000 0.7350 0.6750 0.6450 0.6140 0.6120
3.415365 0.6160 0.6840 0.6990 0.8050 0.8100
3.449000 0.8120 0.8120 0.8170 0.8270 0.8320
3.483365 0.8440 0.8540 0.8630 0.8730 0.8750
3.518000 0.8750 0.8800 0.8800 0.8820 0.8820
3.552365 0.8850 0.8900 0.8920 0.8920 0.8920
3.587000 0.8920 0.8940 0.8940 0.8950 0.8950
3.621365 0.8950 0.8950 0.8970 0.8970 0.8970
3.656000 0.8970 0.8990 0.8990 0.8990 0.9010
3.690365 0.9010 0.9010 0.9010 0.9020 0.9020
3.724000 0.9040 0.9040 0.9040 0.9040 0.9040
3.758365 0.9040 0.9040 0.9040 0.9020 0.9020
3.793000 0.9020 0.9020 0.9020 0.9020 0.9020
3.827365 0.9020 0.9020 0.9020 0.9020 0.9010
3.862000 0.9010 0.9010 0.9010 0.9010 0.9010
3.896365 0.9010 0.9010 0.9020 0.9020 0.9040
3.930000 0.9040 0.9060 0.9060 0.9060 0.9070
3.964365 0.9060 0.9060 0.9060 0.9060 0.9060
3.999000 0.9070 0.9090 0.9090 0.9090 0.9090
4.033365 0.9090 0.9090 0.9090 0.9090 0.9090
4.068000 0.9070 0.9070 0.9070 0.9090 0.9090
4.102365 0.9090 0.9090 0.9090 0.9090 0.9090
4.136000 0.9090 0.9090 0.9090 0.9090 0.9090
4.170365 0.9090 0.9090 0.9090 0.9070 0.9070
4.205000 0.9070 0.9060 0.9040 0.9040 0.9040
4.239365 0.9020 0.9020 0.9010 0.9010 0.8990
4.274000 0.8970 0.8950 0.8900 0.8850 0.8850
4.308365 0.8820 0.8750 0.8720 0.8660 0.8650
4.342000 0.8630 0.8610 0.8530 0.8510 0.8510
4.376365 0.8510 0.8530 0.8560 0.8630 0.8680
4.411000 0.8720 0.8730 0.8750 0.8770 0.8770
4.445365 0.8800 0.8820 0.8870 0.8900 0.8940
4.480000 0.8940 0.8940 0.8940 0.8940 0.8940
4.514365 0.8940 0.8920 0.8920 0.8920 0.8920
4.549000 0.8920 0.8920 0.8940 0.8940 0.8970
4.583365 0.8990 0.8990 0.9010 0.9010 0.9040
4.617000 0.9060 0.9060 0.9060 0.9060 0.9060
4.651365 0.9040 0.9020 0.9010 0.9010 0.9010
4.686000 0.9010 0.9010 0.9010 0.9020 0.9020
4.720365 0.9020 0.9020 0.9020 0.9020 0.9020
4.755000 0.9040 0.9060 0.9070 0.9090 0.9110
4.789365 0.9110 0.9110 0.9110 0.9090 0.9090
4.823000 0.9070 0.9070 0.9060 0.9060 0.9040
4.857365 0.9040 0.9020 0.9020 0.9020 0.9010
4.892000 0.9010 0.9020 0.9020 0.9020 0.9020
4.926365 0.9040 0.9040 0.9040 0.9040 0.9020
4.961000 0.9010 0.9010 0.9010 0.8940 0.8940
4.995365 0.8920 0.8920 0.8920 0.8920 0.8920
5.029000 0.8920 0.8990 0.9090 0.9110 0.9110
5.063365 0.9110 0.9110 0.9020 0.9020 0.9040
5.098000 0.9070 0.9090 0.9110 0.9110 0.9120
5.132365 0.9120 0.9120 0.9120 0.9120 0.9120
5.167000 0.9110 0.9110 0.9110 0.9110 0.9110
5.201365 0.9110 0.9090 0.9090 0.9070 0.9060
5.236000 0.9070 0.9070 0.9110 0.9110 0.9110
5.270365 0.9110 0.9110 0.9110 0.9120 0.9120
5.304000 0.9140 0.9140 0.9140 0.9160 0.9160
5.338365 0.9160 0.9160 0.9160 0.9140 0.9110
5.373000 0.9110 0.9090 0.9090 0.9090 0.9070
5.407365 0.9070 0.9090 0.9090 0.9090 0.9090
5.442000 0.9090 0.9060 0.9010 0.8990 0.8990
5.476365 0.9010 0.9010 0.9020 0.9040 0.9060
5.510000 0.9070 0.9090 0.9110 0.9120 0.9120
5.544365 0.9120 0.9120 0.9120 0.9120 0.9140
5.579000 0.9140 0.9160 0.9180 0.9190 0.9210
5.613365 0.9210 0.9210 0.9210 0.9210 0.9180
5.648000 0.9180 0.9160 0.9180 0.9190 0.9190
5.682365 0.9210 0.9210 0.9210 0.9160 0.9120
5.716000 0.9120 0.9110 0.9090 0.9070 0.9060
5.750365 0.9040 0.9020 0.9020 0.9020 0.9020
5.785000 0.9020 0.9020 0.9020 0.9020 0.9020
5.819365 0.9020 0.9020 0.9020 0.9020 0.9110
5.854000 0.9160 0.9160 0.9180 0.9190 0.9180
5.888365 0.9160 0.9140 0.9110 0.9060 0.9040
5.922000 0.9040 0.9040 0.9040 0.9040 0.9040
5.956365 0.9040 0.9040 0.9020 0.9040 0.9040
5.991000 0.9040 0.9040 0.9040 0.9020 0.9010
6.025365 0.8990 0.8970 0.8940 0.8900 0.8870
6.060000 0.8850 0.8820 0.8800 0.8770 0.8730
6.094365 0.8700 0.8660 0.8650 0.8630 0.8580
6.129000 0.8540 0.8540 0.8410 0.8340 0.8150
6.163365 0.8070 0.7980 0.7810 0.7790 0.7780
6.197000 0.7780 0.7710 0.7620 0.7540 0.7500
6.231365 0.7450 0.7440 0.7400 0.7080 0.6920
6.266000 0.6790 0.6630 0.6580 0.6500 0.6430
6.300365 0.6410 0.6330 0.6290 0.6240 0.6210
6.335000 0.6140 0.6040 0.5930 0.5850 0.5830
6.369365 0.5750 0.5590 0.5580 0.5540 0.5270
6.403000 0.5050 0.4980 0.4910 0.4810 0.4770
6.437365 0.4770 0.4790 0.4860 0.5130 0.5200
6.472000 0.5290 0.5340 0.5710 0.5850 0.5920
6.506365 0.5920 0.6020 0.6120 0.6220 0.6270
6.541000 0.6330 0.6410 0.6550 0.6650 0.6740
6.575365 0.6800 0.6820 0.6860 0.7010 0.7080
6.609000 0.7200 0.7260 0.7350 0.7370 0.7470
6.643365 0.7590 0.7590 0.7590 0.7550 0.7520
6.678000 0.7490 0.7450 0.7210 0.7040 0.6910
6.712365 0.6770 0.6750 0.6680 0.6210 0.5750
6.747000 0.5730 0.5760 0.5900 0.6140 0.6530
6.781365 0.6920 0.7760 0.7980 0.8100 0.8190
6.816000 0.8220 0.8240 0.8250 0.8250 0.8270
6.850365 0.8270 0.8310 0.8340 0.8340 0.8120
6.884000 0.8000 0.7730 0.7450 0.7350 0.7160
6.918365 0.7150 0.7110 0.7110 0.7210 0.7690
6.953000 0.8080 0.8460 0.8540 0.8540 0.8540
6.987365 0.8540 0.8530 0.8530 0.8510 0.8490
7.022000 0.8480 0.8480 0.8490 0.8510 0.8530
7.056365 0.8530 0.8540 0.8580 0.8600 0.8610
7.090000 0.8610 0.8610 0.8600 0.8600 0.8600
7.124365 0.8540 0.8510 0.8480 0.8460 0.8410
7.159000 0.8360 0.8310 0.8220 0.8120 0.8080
7.193365 0.7640 0.7540 0.7440 0.7280 0.7200
7.228000 0.7180 0.7210 0.7250 0.7280 0.7490
7.262365 0.7930 0.8000 0.8070 0.8130 0.8150
7.296000 0.8190 0.8200 0.8200 0.8220 0.8220
7.330365 0.8250 0.8340 0.8440 0.8480 0.8530
7.365000 0.8540 0.8610 0.8630 0.8630 0.8660
7.399365 0.8680 0.8680 0.8720 0.8750 0.8780
7.434000 0.8800 0.8800 0.8820 0.8820 0.8800
7.468365 0.8750 0.8730 0.8720 0.8680 0.8630
7.502000 0.8610 0.8560 0.8530 0.8480 0.8190
7.536365 0.8150 0.7980 0.7830 0.7500 0.7350
7.571000 0.7200 0.6750 0.5010 0.4910 0.4790
7.605365 0.4570 0.4550 0.4550 0.4590 0.5490
7.640000 0.5680 0.6290 0.6670 0.7200 0.7370
7.674365 0.7470 0.7640 0.7810 0.7860 0.7910
7.709000 0.8000 0.8000 0.8020 0.8020 0.8020
7.743365 0.8020 0.8030 0.8030 0.8020 0.8020
7.777000 0.8000 0.7950 0.7910 0.7880 0.7840
7.811365 0.7830 0.7810 0.7740 0.7730 0.7710
7.846000 0.7660 0.7550 0.7450 0.7230 0.7210
7.880365 0.6840 0.6650 0.6450 0.6260 0.6220
7.915000 0.6100 0.5710 0.5320 0.5170 0.5030
7.949365 0.4890 0.4860 0.4820 0.4820 0.4860
7.983000 0.5000 0.5080 0.5080 0.5050 0.5010
8.017365 0.4980 0.4810 0.4620 0.4410 0.4300
8.052000 0.4260 0.4300 0.4570 0.4790 0.5000
8.086365 0.5900 0.6360 0.6700 0.6960 0.7150
8.121000 0.7280 0.7370 0.7440 0.7550 0.7610
8.155365 0.7620 0.7730 0.7810 0.7830 0.7830
8.189000 0.7840 0.7840 0.7860 0.7860 0.7860
8.223365 0.7880 0.7880 0.7910 0.7910 0.7930
8.258000 0.7930 0.7910 0.7900 0.7860 0.7810
8.292365 0.7760 0.7710 0.7690 0.7610 0.7500
8.327000 0.7450 0.7400 0.7320 0.7080 0.7010
8.361365 0.6920 0.6910 0.6910 0.6910 0.6970
8.395000 0.7060 0.7200 0.7300 0.7570 0.7610
8.429365 0.7620 0.7620 0.7640 0.7640 0.7660
8.464000 0.7690 0.7690 0.7710 0.7760 0.7780
8.498365 0.7790 0.7810 0.7830 0.7830 0.7830
8.533000 0.7830 0.7810 0.7810 0.7790 0.7780
8.567365 0.7760 0.7760 0.7740 0.7730 0.7690
8.602000 0.7640 0.7520 0.7500 0.7470 0.7420
8.636365 0.7280 0.7210 0.7150 0.7060 0.7010
8.670000 0.6840 0.6820 0.6720 0.6620 0.6510
8.704365 0.6500 0.6460 0.6390 0.6340 0.6260
8.739000 0.6170 0.6070 0.6040 0.6000 0.5900
8.773365 0.5850 0.5800 0.5780 0.5800 0.5800
8.808000 0.5830 0.5850 0.5880 0.5920 0.5920
8.842365 0.5930 0.5930 0.5920 0.5900 0.5870
8.876000 0.5810 0.5810 0.5800 0.5800 0.5850
8.910365 0.6050 0.6100 0.6140 0.6220 0.6650
8.945000 0.6870 0.6890 0.7030 0.7080 0.7130
8.979365 0.7200 0.7230 0.7230 0.7250 0.7260
9.014000 0.7260 0.7280 0.7280 0.7280 0.7280
9.048365 0.7280 0.7280 0.7280 0.7260 0.7260
9.082000 0.7250 0.7250 0.7250 0.7250 0.7280
9.116365 0.7300 0.7330 0.7350 0.7370 0.7370
9.151000 0.7400 0.7440 0.7440 0.7420 0.7420
9.185365 0.7420 0.7420 0.7400 0.7380 0.7330
9.220000 0.7260 0.7180 0.7080 0.7060 0.6970
9.254365 0.6870 0.6800 0.6720 0.6670 0.6560
9.289000 0.6500 0.6460 0.6430 0.6410 0.6430
9.323365 0.6480 0.6510 0.6560 0.6910 0.7060
9.357000 0.7160 0.7230 0.7320 0.7380 0.7420
9.391365 0.7570 0.7590 0.7610 0.7620 0.7620
9.426000 0.7620 0.7640 0.7640 0.7660 0.7660
9.460365 0.7670 0.7670 0.7710 0.7730 0.7780
9.495000 0.7810 0.7860 0.7910 0.7930 0.7950
9.529365 0.7960 0.7960 0.8000 0.8000 0.8020
9.563000 0.8030 0.8050 0.8050 0.8070 0.8080
9.597365 0.8080 0.8080 0.8100 0.8100 0.8100
9.632000 0.8100 0.8100 0.8120 0.8120 0.8120
9.666365 0.8120 0.8100 0.8100 0.8080 0.8080
9.701000 0.8080 0.8080 0.8080 0.8070 0.8070
9.735365 0.8070 0.8070 0.8050 0.8050 0.8050
9.769000 0.8050 0.8050 0.8050 0.8050 0.8050
9.803365 0.8050 0.8050 0.8050 0.8050 0.8050
9.838000 0.8050 0.8030 0.8030 0.8030 0.8030
9.872365 0.8030 0.8030 0.8030 0.8030 0.8030
9.907000 0.8030 0.8030 0.8030 0.8030 0.8030
9.941365 0.8030 0.8030 0.8030 0.8030 0.8030
9.975000 0.8050 0.8030 0.8030 0.8030 0.8030
10.009365 0.8030 0.8030 0.8030 0.8030 0.8030
10.044000 0.8030 0.8030 0.8020 0.8020 0.8000
10.078365 0.7980 0.7980 0.7960 0.7950 0.7930
10.113000 0.7910 0.7910 0.7900 0.7900 0.7840
10.147365 0.7830 0.7810 0.7810 0.7790 0.7780
10.182000 0.7710 0.7710 0.7660 0.7620 0.7540
10.216365 0.7500 0.7450 0.7370 0.7300 0.7210
10.250000 0.7110 0.7030 0.6920 0.6800 0.6720
10.284365 0.6550 0.6310 0.6090 0.5870 0.5640
10.319000 0.5400 0.5060 0.4940 0.4810 0.4620
10.353365 0.4480 0.4330 0.4260 0.4230 0.4210
10.388000 0.4210 0.4210 0.4280 0.4310 0.4470
10.422365 0.4650 0.4760 0.4960 0.5560 0.5750
10.456000 0.5920 0.6090 0.6240 0.6360 0.6450
10.490365 0.6500 0.6560 0.6600 0.6650 0.6670
10.525000 0.6700 0.6700 0.6700 0.6700 0.6700
10.559365 0.6680 0.6620 0.6550 0.6500 0.6460
10.594000 0.6430 0.6360 0.6290 0.6190 0.6040
10.628365 0.5900 0.5760 0.5660 0.5560 0.5390
10.662000 0.5050 0.4940 0.4820 0.4770 0.4330
10.696365 0.3920 0.3560 0.3480 0.3360 0.3080
10.731000 0.3000 0.3000 0.2980 0.2960 0.2930
10.765365 0.2910 0.2880 0.2830 0.2740 0.2550
10.800000 0.2440 0.2320 0.2080 0.1860 0.1560
10.834365 0.1390 0.1050 0.0780 0.0630 0.0420
10.868000 0.0270 0.0150 0.0100 0.0010 0.0010
10.902365 0.0000 0.0000 0.0000 0.0100 0.0170
10.937000 0.0320 0.0510 0.0780 0.1090 0.1310
10.971365 0.1410 0.1460 0.1720 0.1920 0.2150
11.006000 0.2400 0.3150 0.3320 0.3780 0.4160
11.040365 0.4310 0.4410 0.4720 0.4860 0.4940
11.075000 0.4980 0.5170 0.5180 0.5390 0.5420
11.109365 0.5460 0.5490 0.5490 0.5520 0.5540
11.143000 0.5520 0.5520 0.5510 0.5460 0.5420
11.177365 0.5400 0.5340 0.5250 0.5180 0.5100
11.212000 0.5050 0.4980 0.4860 0.4740 0.4620
11.246365 0.4500 0.4380 0.4360 0.4230 0.4020
11.281000 0.3720 0.3510 0.3070 0.2840 0.2610
11.315365 0.2420 0.2230 0.1860 0.1530 0.1240
11.349000 0.1020 0.0900 0.0760 0.0710 0.0660
11.383365 0.0580 0.0560 0.0560 0.0560 0.0560
11.418000 0.0590 0.0710 0.0830 0.0930 0.0970
11.452365 0.1050 0.1090 0.1120 0.1120 0.1120
11.487000 0.1120 0.1100 0.1090 0.1040 0.1000
11.521365 0.0980 0.0980 0.1000 0.1020 0.1050
11.555000 0.1140 0.1270 0.1480 0.1600 0.1800
11.589365 0.2080 0.2330 0.2400 0.2440 0.2690
11.624000 0.3150 0.3200 0.3320 0.3390 0.3440
11.658365 0.3460 0.3490 0.3530 0.3600 0.3630
11.693000 0.3650 0.3680 0.3680 0.3680 0.3680
11.727365 0.3680 0.3650 0.3630 0.3540 0.3440
11.762000 0.3310 0.3150 0.2980 0.2950 0.2830
11.796365 0.2660 0.2550 0.2450 0.2230 0.2010
11.830000 0.1800 0.1630 0.1500 0.1330 0.1190
11.864365 0.1090 0.0980 0.0880 0.0750 0.0680
11.899000 0.0610 0.0590 0.0590 0.0610 0.0640
11.933365 0.0710 0.0800 0.0920 0.1040 0.1190
11.968000 0.1360 0.1550 0.1720 0.1890 0.2060
12.002365 0.2260 0.2450 0.2880 0.3080 0.3310
12.036000 0.3510 0.3720 0.3900 0.4090 0.4260
12.070365 0.4410 0.4550 0.4650 0.4670 0.4810
12.105000 0.4890 0.4940 0.5050 0.5100 0.5150
12.139365 0.5180 0.5200 0.5200 0.5180 0.5180
12.174000 0.5180 0.5150 0.5110 0.5060 0.5030
12.208365 0.4960 0.4890 0.4880 0.4770 0.4620
12.242000 0.4400 0.4180 0.3940 0.3700 0.3480
12.276365 0.3310 0.2900 0.2740 0.2590 0.2400
12.311000 0.2200 0.1990 0.1940 0.1680 0.1550
12.345365 0.1530 0.1450 0.1340 0.1240 0.1190
12.380000 0.1140 0.1120 0.1040 0.0980 0.0970
12.414365 0.0980 0.1050 0.1170 0.1220 0.1290
12.448000 0.1510 0.1560 0.1740 0.1990 0.2280
12.482365 0.2880 0.3130 0.3250 0.3630 0.3870
12.517000 0.4060 0.4140 0.4310 0.4520 0.4980
12.551365 0.5510 0.5560 0.5730 0.5950 0.5980
12.586000 0.6070 0.6260 0.6260 0.6330 0.6450
12.620365 0.6550 0.6650 0.6670 0.6700 0.6720
12.655000 0.6740 0.6750 0.6770 0.6790 0.6800
12.689365 0.6800 0.6800 0.6800 0.6800 0.6800
12.723000 0.6800 0.6800 0.6790 0.6790 0.6720
12.757365 0.6630 0.6580 0.6510 0.6430 0.6330
12.792000 0.6260 0.6210 0.6120 0.6000 0.5810
12.826365 0.5560 0.5220 0.5100 0.4960 0.4820
12.861000 0.4770 0.4690 0.4620 0.4590 0.4600
12.895365 0.4620 0.4700 0.4820 0.5100 0.5370
12.929000 0.5520 0.5610 0.5930 0.6100 0.6270
12.963365 0.6430 0.6550 0.6670 0.6790 0.6890
12.998000 0.6970 0.7060 0.7150 0.7200 0.7300
13.032365 0.7400 0.7440 0.7470 0.7520 0.7540
13.067000 0.7550 0.7590 0.7610 0.7620 0.7640
13.101365 0.7670 0.7670 0.7690 0.7690 0.7710
13.135000 0.7730 0.7730 0.7730 0.7740 0.7740
13.169365 0.7740 0.7760 0.7780 0.7780 0.7780
13.204000 0.7780 0.7780 0.7780 0.7780 0.7780
13.238365 0.7780 0.7780 0.7780 0.7780 0.7780
13.273000 0.7780 0.7780 0.7790 0.7790 0.7790
13.307365 0.7790 0.7790 0.7780 0.7780 0.7780
13.342000 0.7760 0.7760 0.7740 0.7740 0.7740
13.376365 0.7740 0.7740 0.7740 0.7730 0.7730
13.410000 0.7730 0.7740 0.7740 0.7760 0.7780
13.444365 0.7780 0.7780 0.7790 0.7790 0.7790
13.479000 0.7790 0.7790 0.7780 0.7780 0.7760
13.513365 0.7740 0.7690 0.7690 0.7660 0.7660
13.548000 0.7620 0.7620 0.7620 0.7620 0.7610
13.582365 0.7590 0.7570 0.7550 0.7540 0.7540
13.616000 0.7520 0.7520 0.7500 0.7500 0.7500
13.650365 0.7490 0.7490 0.7490 0.7490 0.7490
13.685000 0.7490 0.7490 0.7490 0.7490 0.7490
13.719365 0.7470 0.7470 0.7470 0.7450 0.7450
13.754000 0.7450 0.7440 0.7440 0.7440 0.7420
13.788365 0.7420 0.7400 0.7400 0.7400 0.7400
13.822000 0.7380 0.7380 0.7370 0.7370 0.7350
13.856365 0.7350 0.7350 0.7350 0.7350 0.7350
13.891000 0.7330 0.7330 0.7330 0.7320 0.7320
13.925365 0.7320 0.7300 0.7300 0.7300 0.7280
13.960000 0.7280 0.7260 0.7260 0.7260 0.7250
13.994365 0.7250 0.7250 0.7230 0.7230 0.7230
14.028000 0.7210 0.7200 0.7180 0.7180 0.7180
14.062365 0.7160 0.7150 0.7130 0.7130 0.7110
14.097000 0.7090 0.7090 0.7090 0.7080 0.7040
14.131365 0.7040 0.7030 0.7030 0.7010 0.7010
14.166000 0.6990 0.6990 0.6970 0.6970 0.6960
14.200365 0.6960 0.6940 0.6940 0.6920 0.6910
14.235000 0.6920 0.6910 0.6910 0.6890 0.6890
14.269365 0.6870 0.6860 0.6840 0.6840 0.6820
14.303000 0.6820 0.6800 0.6800 0.6790 0.6790
14.337365 0.6750 0.6750 0.6740 0.6720 0.6720
14.372000 0.6720 0.6700 0.6680 0.6650 0.6630
14.406365 0.6630 0.6620 0.6620 0.6600 0.6600
14.441000 0.6560 0.6560 0.6530 0.6550 0.6530
14.475365 0.6530 0.6510 0.6510 0.6480 0.6480
14.509000 0.6450 0.6450 0.6430 0.6430 0.6410
14.543365 0.6390 0.6390 0.6380 0.6360 0.6360
14.578000 0.6340 0.6330 0.6310 0.6290 0.6270
14.612365 0.6260 0.6240 0.6220 0.6210 0.6190
14.647000 0.6170 0.6170 0.6170 0.6160 0.6140
14.681365 0.6120 0.6100 0.6090 0.6070 0.6050
14.715000 0.6040 0.6020 0.6000 0.5980 0.5970
14.749365 0.5950 0.5930 0.5920 0.5900 0.5880
14.784000 0.5870 0.5830 0.5800 0.5680 0.5610
14.818365 0.5580 0.5590 0.5630 0.5680 0.5730
14.853000 0.5760 0.5760 0.5780 0.5780 0.5780
14.887365 0.5760 0.5760 0.5750 0.5730 0.5710
14.921000 0.5690 0.5680 0.5640 0.5640 0.5630
14.955365 0.5610 0.5610 0.5590 0.5580 0.5560
14.990000 0.5540 0.5520 0.5510 0.5490 0.5470
15.024365 0.5460 0.5440 0.5420 0.5400 0.5370
15.059000 0.5370 0.5340 0.5320 0.5300 0.5230
15.093365 0.5220 0.5220 0.5200 0.5170 0.5130
15.128000 0.5100 0.5060 0.5050 0.5010 0.5010
15.162365 0.5010 0.5000 0.4980 0.4980 0.4960
15.196000 0.4940 0.4930 0.4930 0.4910 0.4890
15.230365 0.4880 0.4860 0.4820 0.4810 0.4790
15.265000 0.4740 0.4700 0.4690 0.4670 0.4670
15.299365 0.4650 0.4650 0.4650 0.4650 0.4640
15.334000 0.4640 0.4640 0.4640 0.4620 0.4640
15.368365 0.4620 0.4620 0.4620 0.4600 0.4600
15.402000 0.4570 0.4570 0.4570 0.4570 0.4570
15.436365 0.4570 0.4570 0.4570 0.4570 0.4570
15.471000 0.4570 0.4550 0.4550 0.4550 0.4530
15.505365 0.4530 0.4530 0.4520 0.4520 0.4520
15.540000 0.4520 0.4520 0.4520 0.4500 0.4500
15.574365 0.4500 0.4500 0.4500 0.4480 0.4480
15.608000 0.4480 0.4480 0.4480 0.4480 0.4480
15.642365 0.4480 0.4500 0.4500 0.4500 0.4500
15.677000 0.4500 0.4500 0.4500 0.4500
##END=
