##TITLE=Spiropentane
##JCAMP-DX=4.24
##DATA TYPE=INFRARED SPECTRUM
##ORIGIN=NIST Mass Spectrometry Data Center
##OWNER=NIST Standard Reference Data Program
Collection (C) 2018 copyright by the U.S. Secretary of Commerce
on behalf of the United States of America. All rights reserved.
##CAS REGISTRY NO=157-40-4
##MOLFORM=C 5 H 8
##$NIST SOURCE=MSDC-IR
##SPECTROMETER/DATA SYSTEM=HP-GC/MS/IRD
##STATE=gas
##XUNITS=1/CM
##YUNITS=ABSORBANCE
##XFACTOR=1.0
##YFACTOR=0.000003800
##DELTAX=4.0
##FIRSTX=550.0
##LASTX=3846.0
##FIRSTY=0.000350
##MAXX=3846
##MINX=550
##MAXY=0.038
##MINY=0
##NPOINTS=825
##XYDATA=(X++(Y..Y))
550.0 92 19 3 45 58 63 34 11 42 71
590.0 63 49 64 48 44 58 59 74 81 46
630.0 26 34 30 27 42 29 28 53 58 50
670.0 31 15 27 42 44 65 74 53 43 56
710.0 63 62 82 80 75 67 86 133 132 107
750.0 124 164 185 212 252 269 283 298 315 325
790.0 316 319 300 292 307 330 395 508 677 900
830.0 1183 1530 1881 2194 2416 2587 2709 2883 3237 3625
870.0 3609 3199 2943 2730 2393 2122 1982 1842 1649 1436
910.0 1173 912 687 498 356 269 219 180 173 189
950.0 231 298 445 741 1209 1826 2422 2749 2706 2977
990.0 3667 3063 2554 3123 3117 2567 1858 1204 775 554
1030.0 441 398 397 413 432 439 424 393 334 296
1070.0 276 220 177 158 126 114 119 107 88 107
1110.0 117 109 110 160 207 240 321 392 450 514
1150.0 527 493 517 535 476 414 335 258 208 147
1190.0 118 111 93 70 57 69 56 44 41 28
1230.0 26 21 12 8 1 12 26 24 26 25
1270.0 16 12 29 45 39 39 63 92 113 155
1310.0 215 265 283 261 245 265 311 359 357 303
1350.0 254 209 160 130 115 97 94 107 130 159
1390.0 192 231 280 331 382 435 493 547 586 603
1430.0 617 629 624 600 549 496 451 392 344 295
1470.0 243 203 167 141 126 114 102 88 76 76
1510.0 73 72 72 77 83 77 83 90 100 109
1550.0 108 113 121 111 100 102 111 113 107 108
1590.0 106 108 121 118 115 118 117 119 113 111
1630.0 114 114 111 107 103 102 97 86 80 77
1670.0 76 75 64 66 69 66 62 58 67 69
1710.0 78 85 86 86 97 116 139 171 206 227
1750.0 238 251 264 275 275 264 234 216 202 184
1790.0 178 163 149 135 127 126 121 121 126 126
1830.0 134 145 145 151 163 179 197 214 228 244
1870.0 261 270 274 290 293 276 274 273 258 239
1910.0 218 201 181 165 159 146 126 111 92 84
1950.0 86 83 79 82 87 94 111 130 147 176
1990.0 208 254 294 331 381 425 467 505 543 578
2030.0 610 626 636 625 591 555 525 503 493 487
2070.0 487 493 487 472 445 416 397 364 330 311
2110.0 275 218 170 145 134 127 114 112 122 129
2150.0 135 142 153 164 169 181 191 200 203 190
2190.0 185 186 175 165 152 126 112 105 90 83
2230.0 82 90 93 90 82 86 91 97 99 90
2270.0 104 126 140 148 154 164 169 173 176 180
2310.0 185 170 162 163 150 128 112 100 86 71
2350.0 70 71 51 36 43 48 44 51 59 65
2390.0 69 82 105 119 134 153 172 192 207 223
2430.0 229 221 228 239 236 211 188 177 167 158
2470.0 152 142 124 120 107 99 94 80 69 55
2510.0 41 35 34 41 49 50 54 56 58 57
2550.0 70 75 60 55 69 77 70 65 57 65
2590.0 63 42 43 50 43 34 37 33 25 25
2630.0 32 39 17 7 8 1 11 15 19 24
2670.0 19 20 20 18 15 22 25 23 32 38
2710.0 34 37 46 37 23 28 33 31 34 37
2750.0 44 59 62 67 73 72 79 90 93 91
2790.0 96 89 86 104 111 114 123 155 198 219
2830.0 246 287 311 339 359 365 391 431 435 402
2870.0 397 407 394 377 357 336 338 334 333 333
2910.0 341 375 436 521 618 736 895 1088 1341 1651
2950.0 1996 2375 2772 3216 3722 4315 5033 5827 6686 7598
2990.0 8393 8945 9330 9736 10000 9901 9659 9273 8595 7739
3030.0 6860 6107 5598 5261 5026 4955 5115 5467 5943 6497
3070.0 6991 7212 7068 6569 5875 5173 4487 3808 3132 2430
3110.0 1770 1244 831 528 337 223 140 102 106 101
3150.0 78 80 91 83 72 51 54 71 52 37
3190.0 18 22 47 45 28 24 29 22 27 30
3230.0 26 34 48 41 44 38 7 4 33 34
3270.0 25 43 40 37 62 54 40 46 41 48
3310.0 36 28 25 26 61 65 80 89 74 85
3350.0 119 163 183 196 196 185 186 176 177 177
3390.0 152 102 56 60 68 50 30 24 37 43
3430.0 43 52 48 36 26 20 15 10 19 12
3470.0 0 9 14 24 36 26 25 14 8 18
3510.0 17 31 42 28 25 39 38 23 25 20
3550.0 12 21 32 22 17 30 38 28 10 16
3590.0 7 5 16 9 13 43 59 38 24 18
3630.0 24 29 32 42 36 33 39 14 2 13
3670.0 6 14 21 9 17 22 24 28 21 21
3710.0 23 39 59 54 31 11 15 19 52 80
3750.0 72 57 64 70 54 73 85 76 74 59
3790.0 52 39 52 71 61 59 61 72 77 80
3830.0 114 137 146 138 130
##END=
