##TITLE=1,1,2-TRICHLOROPROPENE
##JCAMP-DX=4.24
##DATA TYPE=INFRARED SPECTRUM
##CLASS=COBLENTZ
##ORIGIN=W.T. BOLLETER
##OWNER=COBLENTZ SOCIETY
Collection (C) 2018 copyright by the U.S. Secretary of Commerce
on behalf of the United States of America. All rights reserved.
##DATE=Not specified, most likely prior to 1970
##NAMES=1,1,2-trichloro-1-propene
##CAS REGISTRY NO=21400-25-9
##MOLFORM=C3 H3 Cl3
##SOURCE REFERENCE=COBLENTZ NO. 4493
##$NIST SOURCE=COBLENTZ
##$NIST IMAGE=cob4493
##SPECTROMETER/DATA SYSTEM=Not specified, most likely a prism, grating, or hybrid spectrometer.
##PATH LENGTH=0.0025 CM
##SAMPLING PROCEDURE=TRANSMISSION
##RESOLUTION=4
##DATA PROCESSING=DIGITIZED BY NIST FROM HARD COPY
##XUNITS=MICROMETERS
##YUNITS=TRANSMITTANCE
##XFACTOR=1.000000
##YFACTOR=1
##DELTAX=000.017493
##FIRSTX=14.542
##LASTX=38.0005
##FIRSTY=0.818
##MAXX=38.0005
##MINX=14.542
##MAXY=0.919
##MINY=0.037
##NPOINTS=1342
##XYDATA=(X++(Y..Y))
14.542000 0.8180 0.8190 0.8190 0.8210 0.8210
14.629529 0.8230 0.8230 0.8210 0.8210 0.8210
14.717000 0.8190 0.8190 0.8190 0.8180 0.8180
14.804529 0.8190 0.8230 0.8270 0.8280 0.8320
14.892000 0.8390 0.8410 0.8430 0.8460 0.8460
14.979529 0.8480 0.8500 0.8480 0.8390 0.8180
15.067000 0.8070 0.8000 0.7840 0.7710 0.7540
15.154529 0.7360 0.7110 0.6980 0.6750 0.6570
15.242000 0.6520 0.6500 0.6500 0.6520 0.6700
15.329529 0.6890 0.7110 0.7360 0.7590 0.7820
15.417000 0.8000 0.8180 0.8320 0.8410 0.8480
15.504529 0.8520 0.8550 0.8600 0.8660 0.8660
15.592000 0.8680 0.8680 0.8710 0.8730 0.8730
15.679529 0.8730 0.8750 0.8750 0.8750 0.8770
15.767000 0.8750 0.8750 0.8750 0.8770 0.8770
15.854529 0.8770 0.8770 0.8770 0.8780 0.8800
15.942000 0.8800 0.8800 0.8800 0.8800 0.8800
16.029529 0.8800 0.8820 0.8820 0.8820 0.8820
16.117000 0.8820 0.8820 0.8820 0.8800 0.8800
16.204529 0.8800 0.8800 0.8780 0.8780 0.8770
16.292000 0.8770 0.8770 0.8770 0.8750 0.8730
16.379529 0.8730 0.8750 0.8750 0.8730 0.8730
16.466000 0.8730 0.8730 0.8710 0.8710 0.8680
16.553529 0.8660 0.8640 0.8620 0.8600 0.8570
16.641000 0.8530 0.8520 0.8480 0.8480 0.8430
16.728529 0.8410 0.8390 0.8340 0.8320 0.8300
16.816000 0.8270 0.8250 0.8210 0.8180 0.8120
16.903529 0.8110 0.8070 0.8050 0.8020 0.8000
16.991000 0.7960 0.7960 0.7930 0.7890 0.7870
17.078529 0.7860 0.7820 0.7800 0.7780 0.7750
17.166000 0.7710 0.7700 0.7680 0.7660 0.7640
17.253529 0.7640 0.7620 0.7620 0.7610 0.7610
17.341000 0.7590 0.7590 0.7590 0.7590 0.7590
17.428529 0.7610 0.7620 0.7640 0.7640 0.7660
17.516000 0.7680 0.7700 0.7710 0.7710 0.7730
17.603529 0.7750 0.7770 0.7770 0.7780 0.7800
17.691000 0.7800 0.7820 0.7820 0.7840 0.7840
17.778529 0.7840 0.7840 0.7840 0.7840 0.7840
17.866000 0.7820 0.7800 0.7800 0.7780 0.7780
17.953529 0.7770 0.7750 0.7700 0.7680 0.7660
18.041000 0.7620 0.7610 0.7590 0.7570 0.7540
18.128529 0.7520 0.7500 0.7460 0.7450 0.7450
18.216000 0.7450 0.7460 0.7460 0.7480 0.7480
18.303529 0.7500 0.7500 0.7520 0.7520 0.7540
18.391000 0.7540 0.7540 0.7540 0.7540 0.7540
18.478529 0.7520 0.7520 0.7500 0.7480 0.7410
18.566000 0.7370 0.7370 0.7360 0.7300 0.7230
18.653529 0.7210 0.7130 0.7070 0.7040 0.7000
18.741000 0.6980 0.6880 0.6790 0.6700 0.6640
18.828529 0.6540 0.6500 0.6430 0.6320 0.6200
18.915000 0.6070 0.5970 0.5880 0.5660 0.5500
19.002529 0.5400 0.5110 0.4880 0.4790 0.4650
19.090000 0.4470 0.4260 0.3990 0.3740 0.3450
19.177529 0.3200 0.2940 0.2580 0.2420 0.2170
19.265000 0.1960 0.1670 0.1510 0.1370 0.1060
19.352529 0.0980 0.0780 0.0600 0.0570 0.0510
19.440000 0.0460 0.0420 0.0400 0.0390 0.0370
19.527529 0.0370 0.0370 0.0370 0.0390 0.0390
19.615000 0.0420 0.0460 0.0480 0.0510 0.0550
19.702529 0.0710 0.0940 0.1050 0.1170 0.1300
19.790000 0.1510 0.1800 0.2080 0.2350 0.2600
19.877529 0.2860 0.3110 0.3360 0.3610 0.3880
19.965000 0.4130 0.4400 0.4670 0.4900 0.5090
20.052529 0.5290 0.5470 0.5660 0.5820 0.6040
20.140000 0.6220 0.6320 0.6480 0.6540 0.6640
20.227529 0.6750 0.6860 0.6980 0.7040 0.7130
20.315000 0.7230 0.7300 0.7340 0.7390 0.7480
20.402529 0.7500 0.7540 0.7610 0.7640 0.7660
20.490000 0.7710 0.7770 0.7800 0.7840 0.7870
20.577529 0.7890 0.7910 0.7950 0.7960 0.7980
20.665000 0.8000 0.8000 0.8020 0.8020 0.8030
20.752529 0.8030 0.8050 0.8050 0.8090 0.8090
20.840000 0.8110 0.8140 0.8160 0.8180 0.8190
20.927529 0.8190 0.8210 0.8230 0.8230 0.8250
21.015000 0.8270 0.8270 0.8280 0.8280 0.8300
21.102529 0.8320 0.8320 0.8340 0.8340 0.8360
21.190000 0.8360 0.8370 0.8370 0.8390 0.8390
21.277529 0.8430 0.8440 0.8460 0.8480 0.8480
21.364000 0.8480 0.8500 0.8500 0.8500 0.8500
21.451529 0.8520 0.8520 0.8520 0.8520 0.8520
21.539000 0.8520 0.8520 0.8520 0.8530 0.8530
21.626529 0.8530 0.8530 0.8530 0.8550 0.8550
21.714000 0.8550 0.8550 0.8570 0.8570 0.8570
21.801529 0.8570 0.8570 0.8570 0.8570 0.8570
21.889000 0.8570 0.8570 0.8570 0.8590 0.8590
21.976529 0.8590 0.8590 0.8590 0.8590 0.8590
22.064000 0.8590 0.8590 0.8590 0.8600 0.8600
22.151529 0.8600 0.8600 0.8600 0.8620 0.8640
22.239000 0.8660 0.8660 0.8680 0.8680 0.8690
22.326529 0.8690 0.8710 0.8710 0.8730 0.8730
22.414000 0.8750 0.8750 0.8770 0.8770 0.8780
22.501529 0.8800 0.8820 0.8820 0.8820 0.8840
22.589000 0.8850 0.8850 0.8850 0.8870 0.8870
22.676529 0.8890 0.8910 0.8910 0.8930 0.8940
22.764000 0.8960 0.8980 0.8980 0.8980 0.9000
22.851529 0.9000 0.9000 0.9010 0.9010 0.9010
22.939000 0.9030 0.9030 0.9050 0.9050 0.9070
23.026529 0.9090 0.9090 0.9090 0.9100 0.9100
23.114000 0.9100 0.9100 0.9120 0.9160 0.9180
23.201529 0.9180 0.9180 0.9180 0.9190 0.9190
23.289000 0.9190 0.9190 0.9180 0.9180 0.9180
23.376529 0.9190 0.9190 0.9190 0.9190 0.9190
23.464000 0.9190 0.9190 0.9190 0.9190 0.9190
23.551529 0.9190 0.9180 0.9180 0.9180 0.9180
23.638000 0.9180 0.9180 0.9160 0.9120 0.9100
23.725529 0.9100 0.9100 0.9100 0.9090 0.9070
23.813000 0.9050 0.9030 0.9030 0.9010 0.9010
23.900529 0.9010 0.9000 0.9000 0.8980 0.8980
23.988000 0.8980 0.8980 0.8980 0.8960 0.8960
24.075529 0.8960 0.8960 0.8940 0.8940 0.8930
24.163000 0.8910 0.8890 0.8890 0.8870 0.8870
24.250529 0.8850 0.8850 0.8840 0.8840 0.8840
24.338000 0.8840 0.8850 0.8850 0.8870 0.8870
24.425529 0.8870 0.8870 0.8890 0.8890 0.8890
24.513000 0.8910 0.8910 0.8930 0.8930 0.8940
24.600529 0.8960 0.8960 0.8980 0.8980 0.9000
24.688000 0.9000 0.9010 0.9010 0.9010 0.9010
24.775529 0.9000 0.9000 0.9000 0.8980 0.8980
24.863000 0.8960 0.8960 0.8940 0.8930 0.8910
24.950529 0.8910 0.8910 0.8890 0.8870 0.8850
25.038000 0.8840 0.8840 0.8820 0.8820 0.8800
25.125529 0.8780 0.8770 0.8750 0.8750 0.8750
25.213000 0.8730 0.8710 0.8710 0.8690 0.8680
25.300529 0.8680 0.8660 0.8620 0.8620 0.8600
25.388000 0.8590 0.8590 0.8550 0.8550 0.8530
25.475529 0.8500 0.8480 0.8440 0.8430 0.8410
25.563000 0.8390 0.8370 0.8370 0.8360 0.8340
25.650529 0.8280 0.8270 0.8230 0.8180 0.8180
25.738000 0.8140 0.8090 0.8030 0.8020 0.8000
25.825529 0.7980 0.7950 0.7910 0.7860 0.7820
25.913000 0.7770 0.7710 0.7680 0.7640 0.7610
26.000529 0.7570 0.7540 0.7500 0.7480 0.7410
26.087000 0.7360 0.7340 0.7300 0.7250 0.7160
26.174529 0.7110 0.7040 0.7000 0.6910 0.6820
26.262000 0.6770 0.6700 0.6630 0.6520 0.6470
26.349529 0.6360 0.6290 0.6200 0.6110 0.6000
26.437000 0.5900 0.5770 0.5660 0.5560 0.5430
26.524529 0.5310 0.5200 0.5060 0.4930 0.4790
26.612000 0.4700 0.4560 0.4490 0.4330 0.4220
26.699529 0.4060 0.3990 0.3860 0.3770 0.3680
26.787000 0.3540 0.3510 0.3490 0.3490 0.3510
26.874529 0.3510 0.3540 0.3540 0.3580 0.3630
26.962000 0.3680 0.3720 0.3830 0.3930 0.4020
27.049529 0.4040 0.4150 0.4270 0.4380 0.4490
27.137000 0.4590 0.4750 0.4990 0.5060 0.5220
27.224529 0.5340 0.5490 0.5610 0.5700 0.5790
27.312000 0.5970 0.6040 0.6160 0.6320 0.6410
27.399529 0.6500 0.6610 0.6700 0.6800 0.6860
27.487000 0.6930 0.7000 0.7070 0.7140 0.7210
27.574529 0.7250 0.7360 0.7430 0.7500 0.7520
27.662000 0.7550 0.7640 0.7660 0.7680 0.7700
27.749529 0.7710 0.7750 0.7770 0.7780 0.7800
27.837000 0.7800 0.7820 0.7820 0.7800 0.7780
27.924529 0.7780 0.7780 0.7770 0.7770 0.7750
28.012000 0.7730 0.7700 0.7660 0.7640 0.7620
28.099529 0.7570 0.7540 0.7500 0.7480 0.7390
28.187000 0.7320 0.7250 0.7160 0.7130 0.7040
28.274529 0.6980 0.6880 0.6800 0.6730 0.6640
28.362000 0.6540 0.6410 0.6290 0.6140 0.5980
28.449529 0.5840 0.5730 0.5570 0.5450 0.5310
28.536000 0.5180 0.5040 0.4900 0.4750 0.4630
28.623529 0.4500 0.4380 0.4260 0.4200 0.4110
28.711000 0.4020 0.4010 0.3990 0.3920 0.3880
28.798529 0.3860 0.3860 0.3880 0.3880 0.3900
28.886000 0.3900 0.3920 0.3950 0.3970 0.4010
28.973529 0.4090 0.4180 0.4220 0.4360 0.4470
29.061000 0.4670 0.4740 0.4860 0.5000 0.5060
29.148529 0.5150 0.5240 0.5320 0.5410 0.5520
29.236000 0.5660 0.5810 0.5980 0.6040 0.6180
29.323529 0.6270 0.6340 0.6480 0.6520 0.6630
29.411000 0.6720 0.6790 0.6840 0.6910 0.7020
29.498529 0.7110 0.7140 0.7200 0.7270 0.7340
29.586000 0.7390 0.7480 0.7520 0.7540 0.7590
29.673529 0.7620 0.7640 0.7660 0.7680 0.7700
29.761000 0.7700 0.7700 0.7730 0.7770 0.7780
29.848529 0.7800 0.7860 0.7870 0.7870 0.7890
29.936000 0.7890 0.7910 0.7930 0.7960 0.7980
30.023529 0.8020 0.8020 0.8030 0.8050 0.8070
30.111000 0.8070 0.8090 0.8110 0.8190 0.8210
30.198529 0.8230 0.8230 0.8250 0.8250 0.8250
30.286000 0.8250 0.8250 0.8250 0.8250 0.8250
30.373529 0.8250 0.8230 0.8230 0.8210 0.8180
30.461000 0.8180 0.8180 0.8140 0.8140 0.8120
30.548529 0.8110 0.8090 0.8090 0.8090 0.8090
30.636000 0.8090 0.8090 0.8090 0.8090 0.8090
30.723529 0.8090 0.8090 0.8090 0.8090 0.8090
30.810000 0.8090 0.8090 0.8070 0.8070 0.8050
30.897529 0.8050 0.8050 0.8030 0.8030 0.8030
30.985000 0.8020 0.8020 0.8020 0.8000 0.8000
31.072529 0.8000 0.8000 0.8000 0.8000 0.8000
31.160000 0.8000 0.8000 0.8000 0.8000 0.8000
31.247529 0.8000 0.8000 0.8000 0.8000 0.7980
31.335000 0.7980 0.7980 0.7980 0.7980 0.7980
31.422529 0.7980 0.7960 0.7960 0.7960 0.7950
31.510000 0.7930 0.7890 0.7870 0.7860 0.7840
31.597529 0.7820 0.7800 0.7780 0.7770 0.7750
31.685000 0.7710 0.7680 0.7660 0.7640 0.7620
31.772529 0.7590 0.7550 0.7550 0.7540 0.7540
31.860000 0.7540 0.7540 0.7520 0.7520 0.7520
31.947529 0.7500 0.7500 0.7480 0.7460 0.7430
32.035000 0.7370 0.7320 0.7290 0.7230 0.7210
32.122529 0.7200 0.7140 0.7110 0.7070 0.7040
32.210000 0.7020 0.7000 0.6980 0.6960 0.6930
32.297529 0.6890 0.6880 0.6840 0.6800 0.6790
32.385000 0.6730 0.6720 0.6660 0.6610 0.6590
32.472529 0.6540 0.6540 0.6520 0.6500 0.6480
32.560000 0.6470 0.6470 0.6450 0.6430 0.6390
32.647529 0.6340 0.6310 0.6290 0.6250 0.6220
32.735000 0.6180 0.6130 0.6110 0.6110 0.6040
32.822529 0.6020 0.5980 0.5950 0.5910 0.5840
32.910000 0.5790 0.5720 0.5650 0.5540 0.5430
32.997529 0.5310 0.5220 0.5020 0.4860 0.4770
33.085000 0.4670 0.4560 0.4520 0.4450 0.4340
33.172529 0.4260 0.4170 0.4060 0.4010 0.3990
33.259000 0.3920 0.3860 0.3830 0.3770 0.3760
33.346529 0.3740 0.3720 0.3680 0.3650 0.3610
33.434000 0.3540 0.3510 0.3490 0.3450 0.3400
33.521529 0.3350 0.3260 0.3200 0.3170 0.3100
33.609000 0.3040 0.3010 0.2990 0.2900 0.2830
33.696529 0.2810 0.2780 0.2700 0.2670 0.2540
33.784000 0.2470 0.2470 0.2400 0.2380 0.2310
33.871529 0.2280 0.2280 0.2260 0.2210 0.2190
33.959000 0.2170 0.2150 0.2100 0.2060 0.2040
34.046529 0.2030 0.2010 0.2010 0.1990 0.1990
34.134000 0.1970 0.1940 0.1940 0.1920 0.1900
34.221529 0.1900 0.1900 0.1920 0.1940 0.1970
34.309000 0.1970 0.1970 0.1970 0.1960 0.1940
34.396529 0.1940 0.1940 0.1920 0.1920 0.1920
34.484000 0.1920 0.1940 0.1940 0.1960 0.1970
34.571529 0.1970 0.2010 0.2010 0.2040 0.2060
34.659000 0.2060 0.2100 0.2120 0.2150 0.2210
34.746529 0.2260 0.2310 0.2370 0.2380 0.2400
34.834000 0.2470 0.2490 0.2510 0.2530 0.2560
34.921529 0.2630 0.2740 0.2810 0.2860 0.2970
35.009000 0.3060 0.3130 0.3170 0.3190 0.3200
35.096529 0.3220 0.3260 0.3270 0.3290 0.3310
35.184000 0.3330 0.3350 0.3360 0.3420 0.3420
35.271529 0.3440 0.3450 0.3450 0.3450 0.3450
35.359000 0.3450 0.3450 0.3450 0.3440 0.3440
35.446529 0.3420 0.3420 0.3420 0.3400 0.3380
35.534000 0.3360 0.3330 0.3310 0.3310 0.3310
35.621529 0.3310 0.3290 0.3270 0.3270 0.3270
35.708000 0.3260 0.3260 0.3240 0.3200 0.3190
35.795529 0.3190 0.3190 0.3190 0.3170 0.3130
35.883000 0.3100 0.3040 0.3010 0.2990 0.2990
35.970529 0.2990 0.2970 0.2940 0.2940 0.2920
36.058000 0.2900 0.2900 0.2900 0.2880 0.2880
36.145529 0.2860 0.2850 0.2850 0.2830 0.2830
36.233000 0.2810 0.2810 0.2810 0.2790 0.2790
36.320529 0.2790 0.2790 0.2760 0.2740 0.2700
36.408000 0.2700 0.2790 0.2850 0.2790 0.2780
36.495529 0.2790 0.2880 0.2920 0.2920 0.2920
36.583000 0.2900 0.2900 0.2900 0.2880 0.2880
36.670529 0.2880 0.2860 0.2830 0.2790 0.2790
36.758000 0.2810 0.2810 0.2830 0.2830 0.2830
36.845529 0.2810 0.2790 0.2790 0.2780 0.2790
36.933000 0.2810 0.2810 0.2850 0.2850 0.2830
37.020529 0.2810 0.2790 0.2780 0.2760 0.2760
37.108000 0.2760 0.2780 0.2790 0.2790 0.2780
37.195529 0.2780 0.2780 0.2780 0.2790 0.2780
37.283000 0.2780 0.2780 0.2780 0.2780 0.2780
37.370529 0.2780 0.2780 0.2760 0.2740 0.2720
37.458000 0.2700 0.2700 0.2740 0.2740 0.2700
37.545529 0.2690 0.2690 0.2700 0.2740 0.2760
37.633000 0.2780 0.2780 0.2780 0.2760 0.2760
37.720529 0.2760 0.2760 0.2780 0.2790 0.2790
37.808000 0.2790 0.2790 0.2810 0.2810 0.2810
37.895529 0.2810 0.2810 0.2830 0.2810 0.2810
37.983000 0.2830 0.2830
##END=
