##TITLE=Pyrrolidine-2-thione
##JCAMP-DX=4.24
##DATA TYPE=INFRARED SPECTRUM
##ORIGIN=EPA-IR VAPOR PHASE LIBRARY
##OWNER=SRD/NIST
Collection (C) 2018 copyright by the U.S. Secretary of Commerce
on behalf of the United States of America. All rights reserved.
##CAS REGISTRY NO=2295-35-4
##MOLFORM=C 4 H 7 N S
##$NIST SOURCE=MSDC-IR
##STATE=gas
##XUNITS=1/CM
##YUNITS=ABSORBANCE
##XFACTOR=1.
##YFACTOR=0.001
##DELTAX=1.92898
##FIRSTX=549.8
##LASTX=4000.7
##FIRSTY=4.41
##MAXX=4000.7
##MINX=549.759
##MAXY=0.05612
##MINY=0
##NPOINTS=1790
##XYDATA=(X++(Y..Y))
549.759 4.41 5.77 6.67 5.73 6.69 7.76 7.73 8.94 9.56 9.48
569.049 10.02 10.02 9.8 9.81 9.46 8.46 8.45 8.8 8.91 8.46
588.339 8.24 8.32 7.13 6.01 6.27 6.23 4.94 4.78 5.19 4.47
607.628 3.47 3.26 3.68 3.72 3.2 2.41 2.2 2.64 2.81 3.18
626.918 3.1 2.97 3.14 2.86 2.53 2.0415 1.925 1.7863 1.2824 1.6286
646.208 1.993 1.986 1.9764 1.7786 1.8286 1.8529 1.8125 1.7049 1.4609 1.6444
665.498 1.8719 1.7511 1.8529 1.8654 1.7573 1.5653 1.3661 1.3106 1.4599 1.7756
684.787 1.6639 1.693 1.9395 2.15 2.1091 1.8641 1.9155 2.28 2.41 2.19
704.077 2.2 2.13 1.9991 1.9342 2.0499 2.34 2.22 2.19 2.0711 2.0389
723.367 2.1095 1.7917 2.16 2.33 2.041 1.8443 1.8482 2.82 2.7 1.8121
742.657 2.0994 2.31 1.6923 1.9534 2.7 2.3 2.22 2.59 2.52 2.51
761.947 1.9325 1.6697 2.0079 1.8599 1.5479 1.3219 1.7332 2.0663 1.5246 1.12677
781.236 1.0905 1.5046 1.9146 1.12513 1.0204 1.3821 0.98 1.17795 1.15346 1.0486
800.526 1.7334 2.15 1.5494 1.3579 1.5411 1.3825 1.5216 1.2673 2.0141 3.39
819.816 2.72 1.2291 1.3866 1.2716 0.989 1.2924 1.4971 1.411 1.2559 1.3721
839.106 1.7052 1.8571 1.2344 1.14756 1.3445 1.377 1.6645 1.5992 1.3819 1.7517
858.395 2.0787 1.7377 1.4002 1.5124 1.6529 2.0645 1.8493 1.6375 2.12 1.5405
877.685 1.0331 1.3904 1.8242 1.7882 1.3996 1.5673 1.3899 1.3184 1.674 1.5342
896.975 1.3338 1.267 1.3546 1.274 1.4833 2.0165 2.15 1.856 1.5167 1.6815
916.265 2.0114 2.24 2.0205 1.7917 2.21 2.39 2.15 1.9033 1.8495 1.6081
935.555 1.637 1.9167 1.7897 1.808 1.8853 2.31 3.06 3.37 3.35 3.21
954.844 3.61 3.6 3.27 4.22 4.75 4.54 4.66 4.74 4.7 4.59
974.134 4.55 4.51 4.32 4.38 4.25 3.91 3.77 3.44 3.36 3.23
993.424 2.83 2.64 2.59 2.36 1.8167 1.9199 2.32 2.7 3.47 3.49
1012.714 2.76 2.75 3.07 3.15 3.33 2.87 2.84 3.24 3.47 3.49
1032.003 3.28 3.35 3.63 4.3 4.53 4.08 3.59 4.17 4.66 4.01
1051.293 3.15 2.9 3.44 4.42 4.3 3.88 3.33 3.52 3.73 3.3
1070.583 3.88 3.76 4.83 4.72 3.05 3.05 3.67 3.67 4.32 5.23
1089.873 4.71 4.93 5.72 6.54 6.72 6.81 7.66 8.55 10.52 12.82
1109.163 13.22 13.94 15.35 14.54 15.63 17.65 17.28 16.67 17.32 17.28
1128.452 16.46 16.05 15.05 13.73 12.31 10.86 9.48 8.93 8.85 8.37
1147.742 7.36 5.52 5.63 6.59 5.78 5.47 5.83 5.55 4.97 4.77
1167.032 4.26 3.94 4.36 3.69 2.57 2.85 3.19 4.1 4.59 4.13
1186.322 3.48 4.21 4.82 4.09 4.14 2.8 3.03 4.26 4.86 6.03
1205.611 5.68 5.86 7 5.59 5.91 8.09 7.43 7.06 7.48 7.68
1224.901 8.31 9.12 9.5 9.86 9.87 10.14 10.25 9.56 11.23 14.26
1244.191 14.82 16.36 19.7 22.09 24.77 28.04 31.54 33.69 34.89 35.94
1263.481 36.74 37.51 37.62 37.36 37.28 37.72 37.14 34.56 31.32 27.96
1282.771 24.89 22.14 19.78 17.97 16.68 15.85 15.3 15.23 15.62 15.49
1302.060 15.05 14.73 14.33 13.69 13.02 12.65 12.08 11.39 10.88 10.53
1321.350 10.15 9.7 9.08 8.62 8.4 8.3 8.18 7.95 7.82 7.81
1340.640 7.97 7.92 7.74 7.4 7.34 7.56 7.22 6.4 5.54 4.7
1359.930 3.94 3.49 3.06 2.91 2.88 2.64 2.54 2.52 2.46 2.37
1379.219 2.31 2.38 2.39 2.26 2.32 2.41 2.45 2.51 2.35 2.32
1398.509 2.52 2.46 2.24 2.45 3.02 3.23 3.33 3.38 3.2 3.52
1417.799 4.1 4.48 4.65 4.94 5.26 5.6 6.09 6.58 7.27 8.17
1437.089 9.51 11.14 13.12 15.35 17.91 20.56 23.22 25.64 27.99 30.55
1456.378 34.11 39.08 43.8 47.87 51.34 54.54 56.12 56.09 54.9 53.37
1475.668 52.61 52.46 51.66 51.12 52.25 52.76 51.24 48.42 44.76 40.74
1494.958 37.07 34.08 32.36 31.46 30.49 29.61 28.85 27.48 25.39 22.66
1514.248 19.19 15.51 12.32 9.79 7.71 6.35 5.52 4.98 4.63 4.25
1533.538 3.83 3.32 3.01 2.87 2.6 2.34 2.16 2.33 2.57 2.77
1552.827 2.62 2.2 1.9503 1.788 1.9946 1.9193 1.6938 1.595 1.6152 1.5629
1572.117 1.8301 2.0001 1.9193 2.0025 1.5208 1.4308 1.6102 1.8675 2.0851 2.0585
1591.407 2.28 2.24 2.0537 2.21 2.12 1.9769 2.35 2.34 2.1033 2.0838
1610.697 2.0241 2.24 2.0777 1.6775 1.9997 2.31 2.43 2.47 2.0656 1.7069
1629.986 1.9953 2.19 1.8514 1.8829 2.0665 1.6062 1.7116 2.0076 1.837 1.5812
1649.276 1.4827 1.648 1.7299 1.6901 1.8501 1.7836 1.5233 1.5179 1.4213 1.4313
1668.566 1.5376 1.4962 1.4459 1.396 1.6126 1.9256 1.8516 1.508 1.3038 1.6308
1687.856 1.6258 1.2991 1.21645 1.13861 1.19448 1.176 1.15111 1.2849 1.2729 1.3381
1707.146 1.4281 1.5597 1.5403 1.483 1.4342 1.4408 1.6407 1.4238 1.3338 1.6835
1726.435 1.801 1.6893 1.7237 1.6797 1.474 1.3001 1.16403 1.3206 1.6162 1.5668
1745.725 1.467 1.4382 1.5698 1.8301 1.8024 1.5754 1.4649 1.5556 1.4085 1.3318
1765.015 1.583 1.5189 1.3449 1.2314 1.3157 1.5366 1.496 1.3605 1.3479 1.4187
1784.305 1.4567 1.3392 1.2235 1.2653 1.255 1.3563 1.3419 1.2521 1.13404 1.12738
1803.594 1.2895 1.331 1.2975 1.2997 1.364 1.2908 1.3536 1.4214 1.2785 1.3046
1822.884 1.2404 1.0869 1.17545 1.3675 1.3751 1.3166 1.4749 1.4219 1.3206 1.3283
1842.174 1.4116 1.3602 1.2783 1.3806 1.4219 1.3787 1.2356 1.1249 1.12048 1.20271
1861.464 1.2417 1.2886 1.3235 1.13577 1.17565 1.4172 1.4362 1.4544 1.408 1.2997
1880.754 1.3462 1.3094 1.3668 1.5645 1.4019 1.3152 1.2893 1.1737 1.3434 1.5502
1900.043 1.3865 1.4304 1.5104 1.2783 1.2833 1.4737 1.3855 1.3509 1.3974 1.2607
1919.333 1.1784 1.2662 1.4578 1.5643 1.5465 1.3155 1.328 1.4627 1.5247 1.5707
1938.623 1.5937 1.6594 1.5151 1.4996 1.4805 1.2731 1.2573 1.5085 1.5949 1.3969
1957.913 1.4065 1.4253 1.2892 1.2264 1.347 1.3578 1.4239 1.6034 1.4899 1.4482
1977.202 1.4799 1.4231 1.4771 1.4114 1.3847 1.6832 1.6057 1.6712 1.7457 1.471
1996.492 1.5911 1.6664 1.3843 1.2248 1.2405 1.2683 1.3382 1.4798 1.5472 1.5047
2015.782 1.3654 1.2466 1.3045 1.3956 1.544 1.7857 1.6909 1.3604 1.4647 1.5295
2035.072 1.4702 1.4387 1.4584 1.6032 1.6185 1.4666 1.26 1.17876 1.4334 1.5686
2054.362 1.3331 1.12224 1.2744 1.4338 1.5041 1.6677 1.5119 1.2524 1.2804 1.3566
2073.651 1.4597 1.5495 1.465 1.3266 1.3682 1.3561 1.2821 1.4842 1.4653 1.2412
2092.941 1.21834 1.3111 1.5653 1.4791 1.2188 1.3188 1.2247 1.0812 1.2267 1.4384
2112.231 1.367 1.2565 1.3065 1.3429 1.4621 1.4397 1.4135 1.4551 1.5479 1.6616
2131.521 1.6235 1.4555 1.3399 1.3758 1.4746 1.618 1.5626 1.691 1.8366 1.6207
2150.810 1.4354 1.3716 1.454 1.5441 1.4726 1.2367 1.2568 1.3923 1.3196 1.2966
2170.100 1.401 1.2753 1.3241 1.5235 1.3621 1.3719 1.5794 1.6755 1.6484 1.6529
2189.390 1.5555 1.5458 1.5907 1.5836 1.558 1.4651 1.5305 1.5132 1.3825 1.489
2208.680 1.6084 1.5577 1.5218 1.5329 1.45 1.3128 1.3864 1.5636 1.7012 1.6688
2227.970 1.4971 1.3492 1.337 1.5611 1.582 1.4586 1.5258 1.5772 1.4926 1.4855
2247.259 1.477 1.5575 1.6789 1.6319 1.5443 1.5321 1.7612 1.7123 1.4237 1.5762
2266.549 1.5614 1.4827 1.5854 1.4656 1.4958 1.6345 1.6172 1.7364 1.8288 1.7736
2285.839 1.6183 1.468 1.5257 1.609 1.7509 1.4815 1.3962 1.4649 1.6289 1.8739
2305.129 1.6207 1.5917 1.6842 1.652 1.5746 1.5688 1.579 1.4715 1.3797 1.3086
2324.418 1.4197 1.4876 1.3015 1.3956 1.4056 1.2769 1.20984 1.2488 1.2511 1.20738
2343.708 1.5602 1.5497 1.4336 1.6444 1.843 1.9117 1.7967 1.6747 1.6647 1.6417
2362.998 1.5296 1.4421 1.3689 1.4773 1.713 1.6617 1.5316 1.4778 1.4058 1.4729
2382.288 1.6076 1.6313 1.5606 1.5264 1.6433 1.844 1.7322 1.5789 1.6209 1.4619
2401.578 1.4022 1.6293 1.8517 1.7539 1.4675 1.3079 1.3599 1.4039 1.3953 1.452
2420.867 1.4737 1.4182 1.4388 1.5668 1.5431 1.4686 1.2848 1.1565 1.5142 1.7905
2440.157 1.606 1.5756 1.3464 1.29 1.662 1.6111 1.3443 1.14251 1.3848 1.5585
2459.447 1.4489 1.4469 1.6355 1.6216 1.5018 1.7256 1.6515 1.793 1.7947 1.414
2478.737 1.4801 1.4198 1.231 1.4363 1.463 1.3008 1.5325 1.5455 1.5632 1.9225
2498.026 1.8337 1.4761 1.7027 1.7972 1.3462 1.4604 1.694 1.5979 1.6978 1.7848
2517.316 1.6412 1.7738 1.9269 1.8427 1.4778 1.3268 1.3929 1.4747 1.6496 1.5907
2536.606 1.5943 1.4619 1.4094 1.7147 1.8284 1.5019 1.5087 1.5139 1.4215 1.4445
2555.896 1.67 1.594 1.3296 1.3143 1.4403 1.5491 1.315 1.3207 1.839 1.863
2575.186 1.6614 1.6964 1.5284 1.4971 1.3368 1.2507 1.383 1.4842 1.3889 1.401
2594.475 1.5505 1.6325 1.6456 1.4583 1.5764 1.752 1.6168 1.6227 1.7311 1.8473
2613.765 1.5392 1.12828 1.13654 1.2822 1.2865 1.5306 1.5462 1.2763 1.3674 1.6484
2633.055 1.4005 1.3012 1.6149 1.4821 1.3319 1.3542 1.5728 1.6541 1.7664 1.6085
2652.345 1.3045 1.3346 1.491 1.618 1.5281 1.4832 1.5333 1.12092 0.894 1.243
2671.634 1.3544 1.2559 1.298 1.5596 1.5021 1.602 1.5388 1.0278 1.2445 1.6142
2690.924 1.8182 1.6685 1.6339 1.8589 1.6591 1.5028 1.3447 1.3236 1.3496 1.2957
2710.214 1.6688 1.8824 1.4217 1.2957 1.5555 1.6085 1.6665 1.4571 1.3402 1.9573
2729.504 2.38 2.038 1.6736 1.5743 1.5542 1.7394 1.9198 1.8429 1.7431 1.7275
2748.794 1.9128 1.8756 1.7898 2.26 2.039 1.643 1.6584 1.7147 1.9615 2.1066
2768.083 2.0853 2.0595 2.34 2.32 1.8058 1.7804 1.9021 1.9859 2.31 2.39
2787.373 2.51 2.62 2.4 2.21 2.41 2.27 1.9139 2.16 2.62 2.43
2806.663 2.41 2.72 2.71 2.96 2.89 2.55 2.51 2.42 2.63 3
2825.953 2.91 2.63 2.68 2.87 3 3 2.86 2.68 2.88 2.92
2845.242 2.62 2.74 2.97 3.27 3.44 3.63 3.81 4.04 4.65 5.15
2864.532 5.7 6.9 7.86 8.77 10.02 10.4 10.77 11.62 12.49 13.15
2883.822 13.37 13.35 13.18 13.33 13.34 12.93 12.8 12.37 11.2 10.09
2903.112 9.28 8.19 7.69 7.51 7 6.77 6.77 6.94 6.81 6.74
2922.401 7 7.26 7.35 7.43 7.34 7.51 8.16 8.13 7.9 8.01
2941.691 8.16 8.4 9.11 10.06 10.37 10.75 11.04 10.96 11.24 11.57
2960.981 11.78 12.06 11.98 11.91 12.16 12.53 12.7 12.67 12.65 12.51
2980.271 12.23 12.21 12.1 11.88 11.48 10.84 10.6 9.78 8.92 8.64
2999.561 8.04 7.19 6.7 6.12 5.69 5.56 5.04 4.26 3.54 3.37
3018.850 3.58 3.29 2.9 2.52 2.81 2.77 2.31 2.31 2.17 2.14
3038.140 1.8779 2.21 2.6 2.5 2.0703 1.8632 2.21 2.19 1.9234 1.8514
3057.430 1.8049 1.8931 1.9761 1.7699 1.6566 1.6786 1.6752 1.9366 2.15 1.7861
3076.720 1.3237 1.467 1.8921 1.7441 1.7441 1.943 1.8056 1.7278 1.6779 1.8749
3096.009 1.5795 1.3915 1.7293 1.6597 1.7164 1.7569 1.6344 1.3713 1.19383 1.398
3115.299 1.4382 1.4861 1.7597 1.8633 1.9026 1.8604 1.3913 1.3823 1.5625 1.4613
3134.589 1.7598 1.7766 1.4407 1.3989 1.5991 1.2986 1.0571 1.18144 1.4976 1.7633
3153.879 1.3875 1.4421 1.6821 1.5752 1.661 1.7527 1.7814 1.8616 1.6786 1.2512
3173.169 1.3345 1.3256 0.948 0.982 1.3182 1.649 1.823 1.6271 1.4047 1.7526
3192.458 2.0801 1.7552 1.4716 1.4989 1.2839 1.2272 1.6071 1.7999 1.6185 1.2925
3211.748 1.2189 1.5724 1.9037 1.8724 1.001 0.64 1.5467 1.7865 1.9037 1.8784
3231.038 1.5529 1.4851 1.2986 1.377 1.469 1.3676 1.6761 1.8147 1.5081 1.21475
3250.328 1.5434 1.7224 1.14339 0.848 1.16396 1.6069 1.427 1.4324 1.4835 1.3957
3269.617 1.4724 1.7953 1.7988 1.4222 1.4586 1.0597 1.14685 1.6003 1.3463 1.3269
3288.907 1.3406 1.4449 1.3088 1.1012 1.032 1.4618 1.6783 1.16526 1.6123 1.9398
3308.197 1.5 1.5187 1.5186 1.4846 1.16669 1.1318 1.4461 1.5336 2.16 2.21
3327.487 1.6072 1.2374 1.2358 1.5919 1.808 1.4244 1.3822 1.4898 1.2848 1.5676
3346.777 1.6282 1.4616 1.4593 1.4358 1.3903 1.2417 1.20862 1.561 1.6245 1.4394
3366.066 1.408 1.3903 1.18338 1.4723 1.6533 1.0914 1.005 1.0759 1.4943 1.8056
3385.356 1.2773 1.3293 1.7066 1.6757 1.7089 1.7484 2.13 1.9361 1.758 1.6829
3404.646 2.0494 2.2 1.83 2.26 2.0647 2.1161 2.65 3.01 2.73 2.81
3423.936 3.58 3.53 3.73 4.72 5.72 6.15 6.32 6.63 7.14 7.99
3443.225 8.63 8.97 9 8.75 8.65 8.56 8.75 9 8.97 8.51
3462.515 7.97 7.68 7.01 6.89 6.59 5.76 4.81 3.87 3.26 3.35
3481.805 3.64 2.7 2.18 2.34 1.8457 1.2437 0.997 1.2423 1.3734 1.598
3501.095 1.6501 1.4143 1.6791 1.5706 1.3638 1.2705 1.01 1.3898 1.968 1.8568
3520.385 1.7978 1.6156 1.354 1.4532 0.95 0.71 0.804 0.866 1.087 1.2284
3539.674 1.6052 1.7154 1.5309 1.2339 1.0341 1.2683 1.6027 1.2414 1.15079 1.728
3558.964 1.5433 1.0498 0.889 1.0888 1.3905 1.6374 1.7422 1.3684 1.18821 1.15604
3578.254 1.0915 1.4368 1.6238 1.038 1.14654 1.6225 1.2758 1.3486 1.3702 1.21999
3597.544 0.948 0.79 1.4136 1.7766 1.5875 1.12184 0.89 0.994 1.2471 1.1317
3616.833 1.2335 1.8045 1.9179 1.54 1.4163 1.5836 1.5534 1.4493 1.531 1.3032
3636.123 1.2452 1.2945 1.1051 1.3823 1.5391 1.4556 1.3817 1.228 1.009 1.3268
3655.413 1.3259 1.13307 1.2809 1.4045 1.14002 0.856 1.12307 1.629 1.7535 1.7471
3674.703 1.7133 1.2655 1.0793 1.3393 1.5494 1.2324 0.576 0.833 1.2469 1.21967
3693.993 1.3822 0.915 1.078 1.4391 1.5453 2.0907 1.6362 0.882 0.66 0.681
3713.282 0.937 1.2371 1.6664 1.6928 1.5633 1.8775 1.7496 1.13444 1.3517 1.8349
3732.572 1.762 1.5705 1.6106 1.3745 1.2659 1.1075 0.939 1.3258 1.4425 1.20238
3751.862 0.737 0.88 1.4954 1.4716 1.6135 1.5633 1.2258 1.3162 1.18565 1.0942
3771.152 1.2419 1.21713 1.12415 1.5978 1.7489 1.3976 1.13572 0.989 0.894 0.891
3790.441 0.854 1.21895 1.5365 1.4861 1.4469 1.2901 1.3459 1.0213 0.585 0.723
3809.731 1.1386 1.084 1.21787 1.7425 1.6112 1.3792 1.885 1.5789 0.827 1.2323
3829.021 1.14515 0.643 0.651 1.3585 1.852 1.4263 1.5041 1.5459 1.4931 1.7525
3848.311 1.5717 1.11468 1.11344 1.4209 1.7722 1.9435 2.0432 2.23 1.5731 1.0667
3867.601 1.11038 1.2767 1.2363 0.981 1.2334 1.4378 1.4027 1.4302 1.0461 1.20027
3886.890 1.8386 1.17447 0.558 0.723 0.992 1.17665 1.5001 1.7583 1.5295 1.6198
3906.180 1.4122 1.2361 1.5108 1.568 1.14442 1.0455 0.507 0 0.734 0.793
3925.470 1.0939 1.4786 1.4619 1.2963 1.5122 1.8256 1.6734 1.7498 1.8504 1.8678
3944.760 1.6718 1.272 1.12609 1.026 1.3816 1.3951 1.0649 1.02 0.828 1.0224
3964.049 0.692 0.515 1.1026 1.3945 1.5938 1.4845 1.0507 1.2459 1.3039 1.3601
3983.339 1.5705 1.9381 2.26 2.0592 1.4764 1.3535 1.6505 1.3526 1.0603 0.987
##END=
