##TITLE=Cyclopropanemethylamine
##JCAMP-DX=4.24
##DATA TYPE=INFRARED SPECTRUM
##ORIGIN=EPA-IR VAPOR PHASE LIBRARY
##OWNER=SRD/NIST
Collection (C) 2018 copyright by the U.S. Secretary of Commerce
on behalf of the United States of America. All rights reserved.
##CAS REGISTRY NO=2516-47-4
##MOLFORM=C 4 H 9 N
##$NIST SOURCE=MSDC-IR
##STATE=gas
##XUNITS=1/CM
##YUNITS=ABSORBANCE
##XFACTOR=1.
##YFACTOR=0.001
##DELTAX=1.92898
##FIRSTX=549.8
##LASTX=4000.7
##FIRSTY=10.51
##MAXX=4000.7
##MINX=549.759
##MAXY=0.0969
##MINY=0
##NPOINTS=1790
##XYDATA=(X++(Y..Y))
549.759 10.51 10.2 10.67 10.18 10.38 10.63 10.09 10.34 10.39 10.3
569.049 10.44 9.98 10.11 10.79 11.25 11.37 11.1 10.8 11.09 11.07
588.339 11.05 11.35 11.26 11.39 11.52 11.68 12.17 12.2 11.94 12.1
607.628 12.31 12.52 12.81 12.98 13.17 12.8 13.59 14.32 13.74 13.8
626.918 14.07 14.34 14.78 15.13 15.16 15.31 15.76 16.07 16.12 16.53
646.208 17 17.41 18.04 18.36 18.56 18.91 19.2 19.32 19.65 20.13
665.498 20.41 20.78 21.41 21.91 22.41 22.87 23.67 24.61 25.24 26.11
684.787 27.37 28.15 28.8 29.53 30.38 31.58 32.57 34.04 35.46 36.39
704.077 37.77 39.36 41.26 43.23 45.03 47.13 49.21 51.52 54.29 57.29
723.367 60.44 63.81 67.26 70.47 72.98 75.32 77.69 79.96 81.77 83.29
742.657 85.09 87.37 89.46 89.83 90.11 92.22 94.63 96.23 96.9 96.04
761.947 94.17 92.03 90.4 89.39 87.98 87.13 86.8 86.13 84.97 82.67
781.236 80.53 79.51 79.07 79.08 78.91 78.59 77.73 75.8 73.74 71.94
800.526 70.12 68.07 66.69 66.03 66.02 66.34 66 65.22 64.56 63.49
819.816 61.35 59.15 56.87 54.28 51.97 50.01 48.99 48.29 46.99 45.51
839.106 43.34 41.39 40.06 38.55 36.78 34.92 33.22 32 31.2 30.2
858.395 29.42 28.48 27.76 27.61 27.17 26.64 26.57 26.23 25.87 25.94
877.685 26.12 25.69 24.95 24.79 25.02 25.12 25 25.06 24.91 24.51
896.975 24.22 24.04 23.78 23.55 23.37 23.53 23.63 22.88 22.55 22.65
916.265 22.64 22.87 22.78 22.67 22.82 22.55 22.62 23.06 22.97 23.22
935.555 24.1 24.87 25.46 26.51 27.09 26.88 27.48 28.35 28.5 28.5
954.844 28.63 29.12 29.72 30.07 30.19 30.12 30.06 29.86 30 29.54
974.134 28.38 27.54 26.73 25.64 24.78 24.27 24.02 23.74 23.79 24.73
993.424 25.69 26.68 28.37 30.37 32.65 35.04 37.59 39.93 40.89 41.82
1012.714 43.52 45.12 46.83 50.29 52.27 51.28 52.29 55.6 58.63 60.5
1032.003 61.47 62.48 63.23 62.95 61.8 61.47 61.44 60.23 59.14 58.38
1051.293 57.96 57.35 55.49 53.86 52.57 50.64 48.31 45.22 41.25 37.07
1070.583 33.38 30.64 27.47 24.73 22.33 19.51 17.4 15.26 13.72 12.61
1089.873 11.65 11.28 10.62 9.73 8.75 8.22 8.65 8.35 7.86 7.62
1109.163 6.79 6.7 7.54 7.45 6.92 7.36 7 7.13 7.44 6.43
1128.452 6.28 6.33 6.47 6.55 6.98 7.67 7.17 6.34 6.66 6.65
1147.742 6.07 6.67 7.89 8.38 8.2 7.97 7.82 7.82 7.62 7.49
1167.032 7.65 7.71 7.89 7.53 7.85 8.45 8.33 8.46 8.44 9.11
1186.322 9.66 9.2 8.54 8.82 8.62 8.32 9.07 9.65 9.36 8.77
1205.611 8.8 8.17 7.41 7.46 7.54 7.33 7.52 6.99 5.89 5.32
1224.901 4.89 4.76 5.23 5.45 5.64 6.2 5.95 5.2 4.81 5.18
1244.191 5.19 5.24 5.52 5.5 5.67 6.29 6.8 6.81 6.85 6.86
1263.481 6.99 7.06 7.14 7.12 7.33 7.61 7.56 7.58 7.83 7.87
1282.771 7.74 7.88 7.97 7.89 8.01 8.27 8.41 8.54 8.65 8.84
1302.060 9.32 9.47 9.71 10.32 10.56 10.69 11.13 11.61 12.13 12.81
1321.350 13.26 13.7 14.23 14.64 14.99 15.48 15.79 15.78 15.75 15.81
1340.640 15.69 15.4 15.19 15.07 15.15 15.2 15.23 15.23 15.21 15.26
1359.930 15.23 15.27 15.38 15.53 15.8 16.12 16.46 16.75 17.09 17.62
1379.219 18.08 18.59 19.42 20.12 20.55 21.09 21.58 21.95 22.24 22.27
1398.509 22.13 21.99 21.77 21.58 21.31 20.94 20.6 20.29 19.92 19.42
1417.799 18.99 18.48 17.77 17.14 16.44 15.65 14.96 14.3 13.8 13.54
1437.089 13.66 13.89 13.9 13.97 14.04 14.01 14.03 14.07 14 13.92
1456.378 13.76 13.55 13.5 13.46 13.53 13.42 13.09 13.01 12.9 12.52
1475.668 12.04 11.5 11.08 10.62 10.04 9.5 9.03 8.72 8.38 8.04
1494.958 7.73 7.36 7.1 6.81 6.62 6.51 6.24 6 6.13 6.16
1514.248 5.91 5.8 5.75 5.72 5.74 5.66 5.57 5.68 5.78 5.73
1533.538 5.74 5.78 5.85 5.83 5.92 5.94 5.99 6.35 6.47 6.51
1552.827 6.74 6.89 6.94 7.07 7.35 7.61 7.72 7.95 8.57 9.02
1572.117 9.19 9.55 10.2 10.91 11.4 12.01 12.92 13.74 14.53 15.47
1591.407 16.63 18.03 19.31 20.62 22.06 23.38 24.68 25.96 27.01 27.75
1610.697 28.29 28.94 29.45 29.48 29.51 29.61 29.34 28.94 28.48 27.91
1629.986 27.17 26.15 25.02 24.04 22.86 21.51 19.97 18.48 17.2 15.76
1649.276 14.47 13.25 12.13 11.35 10.51 9.67 9.03 8.49 8.05 7.6
1668.566 7 6.39 5.98 5.64 5.31 5.13 4.89 4.61 4.49 4.42
1687.856 4.37 4.23 3.91 3.86 3.9 3.92 3.99 3.94 3.7 3.64
1707.146 3.84 3.75 3.67 3.65 3.66 3.7 3.7 3.72 3.61 3.49
1726.435 3.5 3.53 3.43 3.37 3.48 3.62 3.68 3.64 3.71 3.83
1745.725 3.74 3.76 3.77 3.78 3.88 3.86 3.98 4.13 4.12 4.2
1765.015 4.23 4.2 4.33 4.4 4.5 4.57 4.55 4.56 4.56 4.65
1784.305 4.8 4.8 4.75 4.76 4.78 4.71 4.62 4.63 4.69 4.77
1803.594 4.81 4.76 4.72 4.74 4.78 4.77 4.79 4.71 4.63 4.64
1822.884 4.47 4.35 4.34 4.32 4.24 4.15 4.18 4.14 4.01 3.98
1842.174 4.01 3.93 3.78 3.73 3.71 3.66 3.73 3.74 3.63 3.61
1861.464 3.59 3.57 3.53 3.46 3.39 3.31 3.16 3.19 3.3 3.3
1880.754 3.25 3.19 3.14 3.18 3.19 3.16 3.12 3.11 3.23 3.28
1900.043 3.16 3.18 3.33 3.22 3.32 3.54 3.55 3.52 3.51 3.53
1919.333 3.43 3.37 3.51 3.54 3.54 3.61 3.51 3.28 3.13 3.07
1938.623 3.02 2.98 3.03 2.96 2.82 2.78 2.75 2.7 2.67 2.75
1957.913 2.62 2.36 2.33 2.46 2.39 2.26 2.25 2.28 2.18 2.07
1977.202 2.19 2.18 1.98 2.02 2.11 2.08 2.17 2.13 2.04 2.04
1996.492 1.95 1.9 1.99 1.93 1.85 1.97 2.06 1.94 2.04 2.15
2015.782 2.12 2.24 2.22 2.35 2.45 2.49 2.66 2.7 2.82 2.92
2035.072 3 3.15 3.22 3.39 3.61 3.66 3.69 3.81 3.84 3.69
2054.362 3.81 3.98 3.81 3.76 3.85 3.89 4.06 4.14 4 3.91
2073.651 3.86 3.83 3.75 3.49 3.37 3.38 3.22 3.1 3 2.85
2092.941 2.75 2.69 2.57 2.68 2.7 2.52 2.44 2.32 2.32 2.19
2112.231 1.96 1.95 2 1.83 1.75 1.81 1.79 1.72 1.7 1.79
2131.521 1.71 1.71 1.67 1.54 1.54 1.48 1.5 1.59 1.58 1.52
2150.810 1.47 1.46 1.5 1.53 1.5 1.41 1.48 1.56 1.39 1.25
2170.100 1.31 1.42 1.37 1.39 1.44 1.29 1.28 1.26 1.23 1.37
2189.390 1.4 1.36 1.43 1.57 1.57 1.47 1.52 1.6 1.53 1.39
2208.680 1.49 1.53 1.4 1.4 1.46 1.47 1.47 1.42 1.32 1.3
2227.970 1.37 1.33 1.31 1.31 1.4 1.46 1.48 1.56 1.5 1.47
2247.259 1.36 1.1636 1.22 1.41 1.45 1.47 1.49 1.44 1.34 1.26
2266.549 1.28 1.29 1.25 1.24 1.1168 0.943 0.9677 1.1151 1.1349 1.01
2285.839 0.9326 0.9282 0.8153 0.7309 0.7593 0.8028 0.8543 0.9399 0.8245 0.7393
2305.129 0.7885 0.7952 0.6774 0.5681 0.7215 0.8449 0.8676 0.9103 0.934 0.897
2324.418 0.9143 0.9411 0.9275 0.8484 0.846 1.0474 1.1493 1.2091 1.25 1.0625
2343.708 0.8572 0.8677 0.9779 1.0592 1.0996 0.9008 0.8804 0.957 0.9585 1.1067
2362.998 1.041 0.9549 0.8329 0.7602 0.9109 0.9981 1.0385 1.0995 1.1913 1.186
2382.288 1.0415 1.023 0.9832 0.9926 1.1094 1.1353 1.0559 0.9824 0.9934 0.8673
2401.578 0.8128 0.9958 1.26 1.3 1.0895 1.0044 1.0823 1.1785 1.1943 1.129
2420.867 1.26 1.3 1.0514 0.9203 1.0439 1.1001 1.0964 1.25 1.27 1.29
2440.157 1.37 1.34 1.36 1.35 1.38 1.51 1.59 1.54 1.53 1.57
2459.447 1.6 1.67 1.72 1.74 1.7 1.74 1.74 1.75 1.83 1.78
2478.737 1.7 1.75 1.77 1.73 1.72 1.76 1.8 1.65 1.51 1.5
2498.026 1.45 1.36 1.27 1.28 1.46 1.45 1.35 1.36 1.35 1.31
2517.316 1.1332 1.0788 1.1897 1.36 1.42 1.33 1.4 1.56 1.43 1.4
2536.606 1.47 1.26 1.1006 1.0892 1.1121 1.1813 1.35 1.46 1.48 1.46
2555.896 1.37 1.25 1.37 1.53 1.44 1.46 1.56 1.46 1.3 1.3
2575.186 1.39 1.61 1.66 1.59 1.75 1.79 1.78 1.86 1.87 1.91
2594.475 1.78 1.66 1.91 1.98 1.78 1.7 1.96 2.19 2.18 2.21
2613.765 2.01 1.83 1.87 2.14 2.4 2.26 2.29 2.35 2.43 2.65
2633.055 2.56 2.44 2.6 2.75 2.84 3.16 3.38 3.38 3.39 3.43
2652.345 3.38 3.43 3.49 3.59 3.74 3.94 3.95 3.91 4 3.95
2671.634 4.05 4.29 4.33 4.29 4.45 4.54 4.55 4.55 4.45 4.36
2690.924 4.42 4.6 4.66 4.48 4.34 4.46 4.61 4.65 4.58 4.67
2710.214 4.93 5.05 5.16 5.3 5.5 5.49 5.41 5.5 5.67 5.99
2729.504 6.01 6.04 6.44 6.7 6.8 6.83 7.01 7.25 7.41 7.64
2748.794 7.89 8.03 8.16 8.33 8.45 8.6 8.81 8.95 9.09 9.27
2768.083 9.81 10.36 10.52 10.65 10.92 11.22 11.63 11.94 12.29 12.55
2787.373 12.86 13.33 13.61 14.03 14.56 15.01 15.56 16.1 16.69 17.44
2806.663 18.14 18.79 19.66 20.72 21.82 23.03 24.23 25.45 26.86 28.51
2825.953 30.1 31.79 33.51 35.34 37.2 38.89 40.83 42.84 44.78 46.8
2845.242 48.45 49.61 51.08 52.78 54.24 55.71 57.25 58.33 59.24 60.11
2864.532 60.8 61.19 61.18 61.45 61.62 61.63 61.55 61.45 61.41 61.61
2883.822 61.81 61.79 61.85 62.23 62.89 63.46 63.86 64.2 64.59 64.98
2903.112 65.34 65.69 66.05 66.32 66.76 67.28 67.51 67.71 68.05 68.05
2922.401 67.63 67.13 66.03 64.13 61.91 60.2 58.08 55.62 53.84 51.93
2941.691 49.66 47.72 45.62 43.16 41.04 39.09 37.17 35.24 33.69 32.32
2960.981 31.21 30.3 29.56 29.13 29.02 29.41 30.26 31.38 32.79 34.63
2980.271 36.87 39.56 42.49 45.58 49.11 53.18 57.12 61.2 65.16 68.77
2999.561 72.43 75.53 78.22 81.12 83.55 83.88 82.56 81.4 81.19 81.38
3018.850 80.81 78.95 76.55 73.81 70.39 66.44 62.24 57.57 52.88 48.62
3038.140 44.69 41.1 37.57 34.77 32.57 30.65 29.46 28.66 28.58 29.02
3057.430 29.7 31.14 32.87 35.04 37.62 40.41 43.32 45.82 47.81 49.15
3076.720 50.12 51.07 53.22 57.9 63.72 63.02 54.1 47.98 47.58 47.75
3096.009 46.51 44.23 41.15 37.51 33.54 29.4 25.79 22.59 19.64 17.16
3115.299 15 12.86 11.03 9.69 8.37 7.18 6.16 5.44 4.79 3.93
3134.589 3.39 3.04 2.73 2.53 2.33 2.14 1.92 1.8 2.02 1.95
3153.879 1.64 1.72 1.73 1.51 1.28 1.1437 1.46 1.37 1.0857 1.24
3173.169 1.28 1.34 1.45 1.53 1.39 1.27 1.1717 1.0574 1.0681 1.0229
3192.458 1.1271 1.52 1.56 1.31 1.0794 1.0166 1.33 1.4 1.43 1.57
3211.748 1.49 1.37 1.25 1.23 1.36 1.22 1.0626 0.9856 1.0146 1.1785
3231.038 1.1956 1.0438 1.0649 1.103 1.1796 1.43 1.48 1.42 1.43 1.35
3250.328 1.1299 1.0143 1.0476 1.2092 1.22 1.0475 0.9051 1.0176 1.3 1.25
3269.617 0.9642 0.9594 1.013 0.9998 1.1843 1.1122 0.9272 1.0718 1.0722 1.1674
3288.907 1.0889 0.8205 0.8635 1.0387 1.0021 1.0123 1.1342 1.1262 1.28 1.36
3308.197 1.2067 1.1554 1.43 1.5 1.5 1.82 1.82 1.57 1.69 1.91
3327.487 2.21 2.61 2.52 2.26 2.31 2.51 2.84 3.05 2.99 2.97
3346.777 3.1 2.99 2.88 3.1 3.13 2.94 2.69 2.45 2.29 1.97
3366.066 1.95 2.16 1.92 1.97 1.93 1.62 1.84 1.65 1.48 1.6
3385.356 1.33 1.137 1.0747 1.098 1.0789 1.2067 1.38 1.26 1.0675 1.0338
3404.646 0.9351 1.0635 1.36 1.35 1.44 1.36 1.43 1.44 1.26 1.22
3423.936 1.1598 1.0844 1.0954 1.34 1.35 1.46 1.55 1.25 1.0869 1.0764
3443.225 1.1603 1.28 1.37 1.21 0.8207 0.6728 0.8408 0.8058 0.7023 0.7849
3462.515 0.8248 0.9813 1.1548 1.0593 0.7888 0.8247 0.8439 0.7019 0.8098 0.8488
3481.805 0.8311 0.7746 0.7364 0.7801 0.9198 0.8837 0.8592 0.7967 0.748 0.8681
3501.095 0.8059 0.684 0.3242 0.4651 0.6094 0.713 0.7382 0.5998 0.6479 0.5257
3520.385 0.6695 0.6697 0.7652 1.079 0.991 0.984 0.8836 0.6988 0.8281 0.8708
3539.674 0.9408 0.9332 0.5279 0.3526 0.3626 0.4088 0.4458 0.25981 0.26901 0.5275
3558.964 0.4462 0.5433 0.7765 0.3977 0.1769 0.3539 0.26726 0.23347 0.3476 0.336
3578.254 0.24542 0.1602 0.28633 0.24299 0.1242 0 0.1301 0.4761 0.5254 0.5011
3597.544 0.5557 0.8999 0.8476 0.4195 0.4859 0.4095 0.3338 0.6277 0.9279 0.8512
3616.833 0.4877 0.3766 0.4259 0.4863 0.5916 0.42 0.20782 0.099 0.30026 0.6123
3636.123 0.6299 0.4802 0.23283 0.26014 0.3158 0.30949 0.30254 0.3778 0.3388 0.1669
3655.413 0.157 0.225 0.3218 0.1846 0.1487 0.27847 0.24271 0.178 0.04 0.016
3674.703 0.3292 0.32 0.27932 0.3649 0.4961 0.7268 0.605 0.3779 0.3854 0.24866
3693.993 0.24595 0.3983 0.3176 0.6056 0.667 0.5164 0.2567 0.051 0.29728 0.30553
3713.282 0.3108 0.3668 0.4453 0.5005 0.3669 0.1949 0.1877 0.3637 0.4725 0.4075
3732.572 0.24627 0.1266 0.022 0.042 0.1676 0.28809 0.4189 0.298 0.1112 0.27373
3751.862 0.4759 0.5571 0.7121 0.7264 0.5426 0.6209 0.5481 0.3824 0.3252 0.27053
3771.152 0.3176 0.6438 0.7455 0.542 0.4022 0.3115 0.3638 0.5033 0.6995 0.7056
3790.441 0.9172 0.8016 0.5233 0.761 0.784 0.8435 0.9107 0.6409 0.4492 0.4353
3809.731 0.6949 0.9084 0.9642 1.1884 1.196 1.1351 1.41 1.27 1.128 1.2063
3829.021 1.0161 1.0485 1.0609 1.18 1.36 1.5 1.41 1.35 1.48 1.29
3848.311 1.1394 1.0223 1.0171 1.0465 0.9057 0.9465 1.1911 1.28 1.1142 0.9393
3867.601 0.8728 0.8507 1.0682 1.2031 1.1102 1.0807 1.0647 0.8613 1.0176 1.1362
3886.890 0.9974 1.0376 0.8478 1.1912 1.51 1.46 1.44 1.188 1.0733 0.9047
3906.180 0.9189 1.35 1.35 0.9275 0.8835 1.111 1.1226 0.8481 0.9133 1.0008
3925.470 0.8885 1.1982 1.2012 1.0074 1.1202 1.1561 1.0442 1.0483 0.8692 0.601
3944.760 0.7578 0.995 0.9679 0.7189 0.7569 0.9778 1.0308 0.9028 0.835 0.7191
3964.049 0.6971 0.8776 0.8812 0.7354 0.9447 1.1107 0.8953 0.8399 0.814 1.0167
3983.339 1.0143 0.6994 0.7393 0.8156 0.6883 0.4535 0.6671 0.9556 0.8743 0.7422
##END=
