##TITLE=DICHLOROACETONITRILE
##JCAMP-DX=4.24
##DATA TYPE=INFRARED SPECTRUM
##CLASS=COBLENTZ
##ORIGIN=STANDARD OIL OF OHIO
##OWNER=COBLENTZ SOCIETY
Collection (C) 2018 copyright by the U.S. Secretary of Commerce
on behalf of the United States of America. All rights reserved.
##DATE=Not specified, most likely prior to 1970
##CAS REGISTRY NO=3018-12-0
##MOLFORM=C2 H Cl2 N
##SOURCE REFERENCE=COBLENTZ NO. 4639
##$NIST SOURCE=COBLENTZ
##$NIST IMAGE=cob4639
##SPECTROMETER/DATA SYSTEM=Not specified, most likely a grating spectrometer.
##STATE=LIQUID
##PATH LENGTH=0.0015 CM
##SAMPLING PROCEDURE=TRANSMISSION
##RESOLUTION=4
##DATA PROCESSING=DIGITIZED BY NIST FROM HARD COPY (FROM TWO SEGMENTS)
##XUNITS=1/CM
##YUNITS=TRANSMITTANCE
##XFACTOR=1.000000
##YFACTOR=1
##DELTAX=1.351357
##FIRSTX=520.27
##LASTX=3893.26
##FIRSTY=0.067
##MAXX=3893.26
##MINX=520.27
##MAXY=0.918
##MINY=0.01
##NPOINTS=2497
##XYDATA=(X++(Y..Y))
520.270000 0.0670 0.0670 0.0690 0.0710 0.0710
527.026785 0.0720 0.0740 0.0740 0.0760 0.0770
533.783570 0.0790 0.0830 0.0860 0.0890 0.0890
540.540355 0.0999 0.1010 0.1129 0.1180 0.1230
547.297140 0.1300 0.1350 0.1400 0.1490 0.1540
554.053925 0.1610 0.1660 0.1720 0.1770 0.1839
560.810710 0.1930 0.2010 0.2110 0.2160 0.2250
567.567496 0.2330 0.2370 0.2499 0.2540 0.2619
574.324281 0.2690 0.2790 0.2880 0.3010 0.3030
581.081066 0.3110 0.3200 0.3280 0.3330 0.3399
587.837851 0.3490 0.3540 0.3550 0.3690 0.3770
594.594636 0.3909 0.3980 0.4010 0.4050 0.4159
601.351421 0.4280 0.4370 0.4500 0.4520 0.4590
608.108206 0.4620 0.4759 0.4830 0.4909 0.4940
614.864991 0.5010 0.5100 0.5130 0.5220 0.5330
621.621776 0.5370 0.5450 0.5520 0.5609 0.5660
628.378561 0.5720 0.5810 0.5890 0.6000 0.6159
635.135346 0.6200 0.6300 0.6350 0.6380 0.6440
641.892131 0.6470 0.6500 0.6520 0.6540 0.6550
648.648917 0.6550 0.6550 0.6550 0.6550 0.6540
655.405702 0.6540 0.6540 0.6520 0.6500 0.6490
662.162487 0.6181 0.6180 0.6488 0.6709 0.6740
668.919272 0.6770 0.6860 0.6890 0.6910 0.6960
675.676057 0.7010 0.7050 0.7060 0.7110 0.7130
682.432842 0.7200 0.7250 0.7250 0.7180 0.7050
689.189627 0.6911 0.6761 0.6671 0.6660 0.6571
695.946412 0.6500 0.6280 0.5881 0.5671 0.4643
702.703197 0.3286 0.1887 0.1204 0.0664 0.0521
709.459982 0.0250 0.0250 0.0470 0.0959 0.1937
716.216767 0.2956 0.3706 0.4326 0.4658 0.4888
722.973552 0.5050 0.5220 0.5250 0.5270 0.5270
729.730338 0.5250 0.5230 0.5150 0.5051 0.5030
736.487123 0.4770 0.4620 0.4490 0.4221 0.4001
743.243908 0.3691 0.3382 0.3052 0.2742 0.2452
750.000693 0.2220 0.1890 0.1570 0.1231 0.0931
756.757478 0.0571 0.0252 0.0200 0.0150 0.0130
763.514263 0.0110 0.0100 0.0100 0.0100 0.0110
770.271048 0.0110 0.0110 0.0110 0.0110 0.0110
777.027833 0.0110 0.0110 0.0110 0.0130 0.0200
783.784618 0.0300 0.0609 0.0978 0.1348 0.1995
790.541403 0.2400 0.2960 0.3369 0.3879 0.4329
797.298188 0.4619 0.4978 0.5278 0.5608 0.5759
804.054973 0.5980 0.6200 0.6330 0.6500 0.6610
810.811759 0.6769 0.6830 0.7009 0.7050 0.7199
817.568544 0.7270 0.7320 0.7420 0.7520 0.7550
824.325329 0.7640 0.7690 0.7740 0.7770 0.7830
831.082114 0.7860 0.7890 0.7960 0.8010 0.8030
837.838899 0.8030 0.8060 0.8080 0.8100 0.8110
844.595684 0.8160 0.8200 0.8220 0.8220 0.8230
851.352469 0.8250 0.8270 0.8270 0.8280 0.8300
858.109254 0.8300 0.8300 0.8320 0.8330 0.8350
864.866039 0.8370 0.8380 0.8380 0.8400 0.8400
871.622824 0.8380 0.8380 0.8380 0.8380 0.8400
878.379609 0.8400 0.8400 0.8400 0.8400 0.8380
885.136394 0.8380 0.8370 0.8370 0.8380 0.8380
891.893180 0.8380 0.8380 0.8370 0.8350 0.8350
898.649965 0.8350 0.8330 0.8330 0.8320 0.8300
905.406750 0.8280 0.8270 0.8230 0.8200 0.8180
912.163535 0.8130 0.8110 0.8100 0.8050 0.7890
918.920320 0.7880 0.7790 0.7621 0.7521 0.7252
925.677105 0.7010 0.6710 0.6400 0.6011 0.5472
932.433890 0.4912 0.4492 0.3863 0.3254 0.2108
939.190675 0.1910 0.1720 0.1540 0.1350 0.1160
945.947460 0.0981 0.0980 0.1149 0.1369 0.1370
952.704245 0.1000 0.0830 0.0570 0.0370 0.0350
959.461030 0.0370 0.0470 0.0589 0.1345 0.2194
966.217815 0.3081 0.4000 0.4590 0.5059 0.5439
972.974601 0.5689 0.5939 0.6079 0.6229 0.6349
979.731386 0.6450 0.6620 0.6660 0.6710 0.6670
986.488171 0.6640 0.6540 0.6470 0.6301 0.5575
993.244956 0.5280 0.5000 0.4710 0.4440 0.4151
1000.001741 0.3881 0.3880 0.4348 0.4807 0.5267
1006.758526 0.5720 0.6160 0.6610 0.7199 0.7569
1013.515311 0.7879 0.8099 0.8229 0.8319 0.8399
1020.272096 0.8520 0.8550 0.8590 0.8610 0.8640
1027.028881 0.8660 0.8670 0.8740 0.8760 0.8770
1033.785666 0.8770 0.8770 0.8790 0.8790 0.8830
1040.542451 0.8830 0.8840 0.8840 0.8860 0.8860
1047.299236 0.8860 0.8860 0.8880 0.8880 0.8890
1054.056021 0.8890 0.8890 0.8910 0.8910 0.8910
1060.812807 0.8910 0.8930 0.8930 0.8940 0.8940
1067.569592 0.8940 0.8960 0.8980 0.9000 0.9000
1074.326377 0.9000 0.9010 0.9010 0.9010 0.9010
1081.083162 0.9010 0.9000 0.8980 0.8960 0.8960
1087.839947 0.8940 0.8940 0.8940 0.8960 0.8980
1094.596732 0.9010 0.9010 0.9010 0.9000 0.8980
1101.353517 0.8960 0.8940 0.8940 0.8960 0.8960
1108.110302 0.8940 0.8940 0.8930 0.8930 0.8910
1114.867087 0.8910 0.8890 0.8880 0.8880 0.8880
1121.623872 0.8860 0.8860 0.8860 0.8860 0.8860
1128.380657 0.8860 0.8880 0.8880 0.8880 0.8890
1135.137442 0.8890 0.8880 0.8840 0.8810 0.8770
1141.894228 0.8770 0.8790 0.8830 0.8840 0.8830
1148.651013 0.8810 0.8810 0.8790 0.8720 0.8690
1155.407798 0.8670 0.8660 0.8640 0.8620 0.8610
1162.164583 0.8570 0.8540 0.8520 0.8500 0.8440
1168.921368 0.8400 0.8350 0.8330 0.8280 0.8160
1175.678153 0.8130 0.8110 0.8010 0.7831 0.7721
1182.434938 0.7519 0.7130 0.7050 0.6770 0.6520
1189.191723 0.6061 0.5611 0.5013 0.4522 0.4013
1195.948508 0.3690 0.3690 0.3830 0.3910 0.4130
1202.705293 0.4549 0.4610 0.4739 0.4830 0.5059
1209.462078 0.5421 0.5660 0.6000 0.6220 0.6540
1216.218863 0.6690 0.6909 0.7049 0.7110 0.7219
1222.975649 0.7320 0.7350 0.7380 0.7370 0.7350
1229.732434 0.7330 0.7320 0.7280 0.7220 0.7200
1236.489219 0.7080 0.7030 0.6940 0.6860 0.6740
1243.246004 0.6620 0.6520 0.6371 0.6151 0.5892
1250.002789 0.5620 0.5420 0.5060 0.4720 0.4490
1256.759574 0.4370 0.4370 0.4499 0.4609 0.4759
1263.516359 0.5050 0.5300 0.5540 0.5740 0.6029
1270.273144 0.6269 0.6549 0.6809 0.7029 0.7328
1277.029929 0.7540 0.7670 0.7790 0.8030 0.8060
1283.786714 0.8150 0.8180 0.8250 0.8300 0.8320
1290.543499 0.8370 0.8440 0.8470 0.8500 0.8540
1297.300284 0.8540 0.8550 0.8590 0.8610 0.8640
1304.057070 0.8660 0.8660 0.8690 0.8710 0.8720
1310.813855 0.8740 0.8760 0.8760 0.8760 0.8770
1317.570640 0.8790 0.8810 0.8810 0.8810 0.8830
1324.327425 0.8860 0.8860 0.8860 0.8890 0.8910
1331.084210 0.8910 0.8930 0.8930 0.8930 0.8930
1337.840995 0.8930 0.8940 0.8960 0.8960 0.8960
1344.597780 0.8960 0.8940 0.8940 0.8940 0.8940
1351.354565 0.8940 0.8930 0.8930 0.8930 0.8930
1358.111350 0.8940 0.8940 0.8940 0.8940 0.8930
1364.868135 0.8930 0.8930 0.8940 0.8940 0.8930
1371.624920 0.8930 0.8940 0.8940 0.8940 0.8940
1378.381705 0.8940 0.8960 0.8940 0.8940 0.8960
1385.138491 0.8980 0.8980 0.8980 0.9000 0.9000
1391.895276 0.9010 0.9010 0.9010 0.9010 0.9010
1398.652061 0.9010 0.9010 0.9000 0.9000 0.8980
1405.408846 0.8960 0.8930 0.8930 0.8910 0.8910
1412.165631 0.8890 0.8890 0.8880 0.8860 0.8840
1418.922416 0.8830 0.8810 0.8810 0.8830 0.8840
1425.679201 0.8840 0.8860 0.8860 0.8880 0.8890
1432.435986 0.8890 0.8910 0.8910 0.8910 0.8930
1439.192771 0.8930 0.8930 0.8930 0.8940 0.8940
1445.949556 0.8940 0.8940 0.8940 0.8940 0.8940
1452.706341 0.8930 0.8910 0.8890 0.8890 0.8880
1459.463126 0.8840 0.8810 0.8790 0.8760 0.8720
1466.219911 0.8710 0.8670 0.8550 0.8520 0.8500
1472.976697 0.8450 0.8400 0.8380 0.8370 0.8370
1479.733482 0.8380 0.8400 0.8420 0.8450 0.8470
1486.490267 0.8520 0.8590 0.8620 0.8640 0.8660
1493.247052 0.8670 0.8760 0.8770 0.8790 0.8810
1500.003837 0.8880 0.8930 0.8960 0.8980 0.9000
1506.760622 0.9000 0.9010 0.9010 0.9010 0.9010
1513.517407 0.9000 0.9000 0.8980 0.8980 0.8960
1520.274192 0.8960 0.8940 0.8940 0.8910 0.8910
1527.030977 0.8910 0.8890 0.8890 0.8890 0.8880
1533.787762 0.8880 0.8860 0.8860 0.8860 0.8880
1540.544547 0.8880 0.8880 0.8880 0.8880 0.8880
1547.301332 0.8880 0.8890 0.8910 0.8940 0.8960
1554.058118 0.9000 0.9010 0.9010 0.9010 0.9030
1560.814903 0.9030 0.9030 0.9030 0.9030 0.9050
1567.571688 0.9050 0.9050 0.9030 0.9030 0.9010
1574.328473 0.9010 0.9010 0.9000 0.9000 0.9000
1581.085258 0.9000 0.8980 0.8980 0.8980 0.8960
1587.842043 0.8960 0.8960 0.8960 0.8960 0.8960
1594.598828 0.8960 0.8960 0.8960 0.8960 0.8960
1601.355613 0.8960 0.8980 0.8980 0.8980 0.8980
1608.112398 0.8980 0.8980 0.8980 0.8980 0.8980
1614.869183 0.8980 0.9000 0.9000 0.9000 0.9010
1621.625968 0.9010 0.9030 0.9030 0.9030 0.9050
1628.382753 0.9050 0.9050 0.9050 0.9050 0.9050
1635.139539 0.9050 0.9050 0.9030 0.9030 0.9030
1641.896324 0.9030 0.9010 0.9010 0.9010 0.9010
1648.653109 0.9010 0.9010 0.9000 0.9000 0.8980
1655.409894 0.8960 0.8960 0.8940 0.8930 0.8910
1662.166679 0.8890 0.8890 0.8890 0.8890 0.8890
1668.923464 0.8880 0.8880 0.8860 0.8840 0.8840
1675.680249 0.8830 0.8790 0.8770 0.8760 0.8760
1682.437034 0.8790 0.8770 0.8770 0.8720 0.8690
1689.193819 0.8670 0.8670 0.8690 0.8720 0.8740
1695.950604 0.8740 0.8760 0.8790 0.8830 0.8830
1702.707389 0.8810 0.8790 0.8790 0.8770 0.8760
1709.464174 0.8760 0.8770 0.8770 0.8770 0.8790
1716.220960 0.8790 0.8770 0.8770 0.8770 0.8770
1722.977745 0.8790 0.8790 0.8790 0.8790 0.8810
1729.734530 0.8840 0.8860 0.8910 0.8930 0.8940
1736.491315 0.8940 0.8980 0.8980 0.9000 0.9000
1743.248100 0.9000 0.9010 0.9010 0.9010 0.9010
1750.004885 0.9010 0.9010 0.9010 0.9000 0.8980
1756.761670 0.8980 0.9010 0.9030 0.9050 0.9050
1763.518455 0.9060 0.9080 0.9080 0.9080 0.9080
1770.275240 0.9080 0.9060 0.9060 0.9060 0.9060
1777.032025 0.9060 0.9060 0.9060 0.9060 0.9080
1783.788810 0.9080 0.9100 0.9100 0.9100 0.9110
1790.545595 0.9110 0.9110 0.9110 0.9110 0.9110
1797.302381 0.9130 0.9130 0.9130 0.9130 0.9130
1804.059166 0.9130 0.9150 0.9150 0.9150 0.9150
1810.815951 0.9150 0.9150 0.9160 0.9160 0.9160
1817.572736 0.9160 0.9160 0.9160 0.9160 0.9180
1824.329521 0.9180 0.9180 0.9180 0.9180 0.9180
1831.086306 0.9180 0.9180 0.9180 0.9180 0.9180
1837.843091 0.9180 0.9180 0.9180 0.9180 0.9180
1844.599876 0.9180 0.9180 0.9180 0.9180 0.9180
1851.356661 0.9180 0.9180 0.9180 0.9180 0.9180
1858.113446 0.9180 0.9180 0.9180 0.9180 0.9180
1864.870231 0.9180 0.9180 0.9180 0.9180 0.9180
1871.627016 0.9180 0.9180 0.9180 0.9180 0.9180
1878.383802 0.9180 0.9180 0.9180 0.9180 0.9180
1885.140587 0.9180 0.9180 0.9180 0.9180 0.9180
1891.897372 0.9180 0.9180 0.9180 0.9180 0.9180
1898.654157 0.9180 0.9180 0.9180 0.9180 0.9180
1905.410942 0.9180 0.9180 0.9180 0.9180 0.9180
1912.167727 0.9180 0.9180 0.9180 0.9180 0.9180
1918.924512 0.9180 0.9180 0.9180 0.9180 0.9180
1925.681297 0.9180 0.9180 0.9180 0.9180 0.9180
1932.438082 0.9180 0.9180 0.9180 0.9180 0.9180
1939.194867 0.9180 0.9180 0.9180 0.9180 0.9180
1945.951652 0.9180 0.9180 0.9180 0.9180 0.9180
1952.708437 0.9180 0.9180 0.9180 0.9180 0.9160
1959.465222 0.9160 0.9160 0.9160 0.9160 0.9160
1966.222008 0.9160 0.9160 0.9160 0.9160 0.9160
1972.978793 0.9160 0.9160 0.9160 0.9160 0.9160
1979.735578 0.9160 0.9160 0.9160 0.9160 0.9160
1986.492363 0.9160 0.9160 0.9160 0.9160 0.9160
1993.249148 0.9160 0.9160 0.9160 0.9160 0.9160
2000.005933 0.9160 0.9160 0.9160 0.9160 0.9160
2006.762718 0.9160 0.9160 0.9160 0.9160 0.9160
2013.519503 0.9160 0.9160 0.9160 0.9160 0.9160
2020.276288 0.9160 0.9160 0.9160 0.9160 0.9160
2027.033073 0.9160 0.9160 0.9160 0.9160 0.9160
2033.789858 0.9160 0.9160 0.9160 0.9160 0.9160
2040.546643 0.9160 0.9170 0.9180 0.9180 0.9180
2047.303429 0.9180 0.9180 0.9170 0.9160 0.9160
2054.060214 0.9160 0.9155 0.9150 0.9150 0.9150
2060.816999 0.9150 0.9150 0.9150 0.9150 0.9150
2067.573784 0.9150 0.9150 0.9150 0.9140 0.9130
2074.330569 0.9120 0.9110 0.9110 0.9110 0.9120
2081.087354 0.9130 0.9130 0.9130 0.9130 0.9130
2087.844139 0.9130 0.9130 0.9130 0.9130 0.9140
2094.600924 0.9150 0.9155 0.9160 0.9160 0.9160
2101.357709 0.9160 0.9160 0.9160 0.9160 0.9160
2108.114494 0.9160 0.9160 0.9160 0.9160 0.9160
2114.871279 0.9160 0.9160 0.9160 0.9160 0.9160
2121.628064 0.9160 0.9160 0.9160 0.9160 0.9160
2128.384850 0.9155 0.9150 0.9150 0.9150 0.9140
2135.141635 0.9130 0.9130 0.9130 0.9140 0.9150
2141.898420 0.9155 0.9160 0.9160 0.9160 0.9155
2148.655205 0.9150 0.9150 0.9150 0.9150 0.9150
2155.411990 0.9150 0.9150 0.9150 0.9150 0.9155
2162.168775 0.9160 0.9160 0.9160 0.9160 0.9160
2168.925560 0.9160 0.9160 0.9155 0.9150 0.9150
2175.682345 0.9150 0.9150 0.9150 0.9150 0.9150
2182.439130 0.9140 0.9130 0.9130 0.9130 0.9115
2189.195915 0.9100 0.9100 0.9100 0.9100 0.9100
2195.952700 0.9090 0.9080 0.9080 0.9080 0.9080
2202.709485 0.9080 0.9070 0.9060 0.9060 0.9060
2209.466271 0.9060 0.9060 0.9060 0.9060 0.9060
2216.223056 0.9060 0.9060 0.9060 0.9060 0.9060
2222.979841 0.9060 0.9060 0.9055 0.9050 0.9050
2229.736626 0.9050 0.9040 0.9030 0.9020 0.9010
2236.493411 0.9005 0.9000 0.8946 0.8891 0.8860
2243.250196 0.8829 0.8735 0.8640 0.8590 0.8540
2250.006981 0.8460 0.8380 0.8330 0.8280 0.8275
2256.763766 0.8270 0.8275 0.8280 0.8374 0.8469
2263.520551 0.8618 0.8767 0.8829 0.8889 0.8935
2270.277336 0.8980 0.8990 0.9000 0.9005 0.9010
2277.034121 0.9020 0.9030 0.9045 0.9060 0.9070
2283.790906 0.9080 0.9090 0.9100 0.9100 0.9100
2290.547692 0.9100 0.9100 0.9105 0.9110 0.9110
2297.304477 0.9110 0.9120 0.9130 0.9130 0.9130
2304.061262 0.9120 0.9110 0.9105 0.9100 0.9100
2310.818047 0.9100 0.9090 0.9080 0.9080 0.9080
2317.574832 0.9080 0.9080 0.9090 0.9100 0.9100
2324.331617 0.9100 0.9100 0.9100 0.9105 0.9110
2331.088402 0.9120 0.9130 0.9140 0.9150 0.9150
2337.845187 0.9150 0.9140 0.9130 0.9120 0.9110
2344.601972 0.9105 0.9100 0.9075 0.9051 0.9040
2351.358757 0.9030 0.9020 0.9010 0.8970 0.8930
2358.115542 0.8885 0.8840 0.8815 0.8790 0.8755
2364.872327 0.8720 0.8690 0.8660 0.8601 0.8541
2371.629112 0.8520 0.8500 0.8475 0.8450 0.8425
2378.385898 0.8400 0.8385 0.8370 0.8370 0.8370
2385.142683 0.8360 0.8350 0.8350 0.8350 0.8350
2391.899468 0.8350 0.8360 0.8370 0.8375 0.8380
2398.656253 0.8410 0.8439 0.8440 0.8440 0.8455
2405.413038 0.8470 0.8480 0.8490 0.8490 0.8490
2412.169823 0.8495 0.8500 0.8500 0.8500 0.8510
2418.926608 0.8520 0.8520 0.8520 0.8535 0.8550
2425.683393 0.8584 0.8619 0.8630 0.8640 0.8650
2432.440178 0.8660 0.8665 0.8670 0.8690 0.8710
2439.196963 0.8725 0.8740 0.8740 0.8740 0.8725
2445.953748 0.8710 0.8710 0.8710 0.8710 0.8710
2452.710533 0.8715 0.8720 0.8720 0.8720 0.8730
2459.467319 0.8740 0.8740 0.8740 0.8750 0.8760
2466.224104 0.8760 0.8760 0.8760 0.8760 0.8765
2472.980889 0.8770 0.8770 0.8770 0.8770 0.8770
2479.737674 0.8770 0.8770 0.8770 0.8770 0.8770
2486.494459 0.8770 0.8770 0.8770 0.8765 0.8760
2493.251244 0.8740 0.8720 0.8705 0.8690 0.8675
2500.008029 0.8660 0.8635 0.8610 0.8600 0.8590
2506.764814 0.8590 0.8590 0.8590 0.8590 0.8600
2513.521599 0.8610 0.8615 0.8620 0.8620 0.8620
2520.278384 0.8630 0.8640 0.8650 0.8660 0.8665
2527.035169 0.8670 0.8680 0.8690 0.8705 0.8720
2533.791954 0.8730 0.8740 0.8765 0.8790 0.8825
2540.548740 0.8860 0.8875 0.8890 0.8910 0.8930
2547.305525 0.8945 0.8960 0.8970 0.8980 0.8990
2554.062310 0.9000 0.9000 0.9000 0.9005 0.9010
2560.819095 0.9020 0.9030 0.9040 0.9050 0.9050
2567.575880 0.9050 0.9055 0.9060 0.9070 0.9080
2574.332665 0.9080 0.9080 0.9080 0.9080 0.9090
2581.089450 0.9100 0.9105 0.9110 0.9110 0.9110
2587.846235 0.9110 0.9110 0.9120 0.9130 0.9140
2594.603020 0.9150 0.9150 0.9150 0.9150 0.9150
2601.359805 0.9155 0.9160 0.9160 0.9160 0.9160
2608.116590 0.9160 0.9160 0.9160 0.9155 0.9150
2614.873375 0.9150 0.9150 0.9150 0.9150 0.9150
2621.630161 0.9150 0.9155 0.9160 0.9160 0.9160
2628.386946 0.9160 0.9160 0.9160 0.9160 0.9170
2635.143731 0.9180 0.9180 0.9180 0.9180 0.9180
2641.900516 0.9180 0.9180 0.9170 0.9160 0.9155
2648.657301 0.9150 0.9150 0.9150 0.9150 0.9150
2655.414086 0.9150 0.9150 0.9155 0.9160 0.9160
2662.170871 0.9160 0.9160 0.9160 0.9160 0.9160
2668.927656 0.9160 0.9160 0.9160 0.9160 0.9160
2675.684441 0.9160 0.9155 0.9150 0.9150 0.9150
2682.441226 0.9150 0.9150 0.9150 0.9150 0.9150
2689.198011 0.9150 0.9150 0.9150 0.9150 0.9150
2695.954796 0.9150 0.9150 0.9140 0.9130 0.9120
2702.711582 0.9110 0.9110 0.9110 0.9105 0.9100
2709.468367 0.9100 0.9100 0.9090 0.9080 0.9070
2716.225152 0.9060 0.9055 0.9050 0.9040 0.9030
2722.981937 0.9020 0.9010 0.9010 0.9010 0.9010
2729.738722 0.9010 0.9020 0.9030 0.9040 0.9050
2736.495507 0.9055 0.9060 0.9060 0.9060 0.9070
2743.252292 0.9080 0.9080 0.9080 0.9090 0.9100
2750.009077 0.9100 0.9100 0.9100 0.9100 0.9105
2756.765862 0.9110 0.9110 0.9110 0.9110 0.9110
2763.522647 0.9110 0.9110 0.9110 0.9110 0.9110
2770.279432 0.9110 0.9110 0.9110 0.9110 0.9110
2777.036217 0.9110 0.9110 0.9110 0.9110 0.9110
2783.793003 0.9110 0.9110 0.9110 0.9110 0.9110
2790.549788 0.9105 0.9100 0.9100 0.9100 0.9100
2797.306573 0.9100 0.9100 0.9100 0.9100 0.9100
2804.063358 0.9090 0.9080 0.9080 0.9080 0.9080
2810.820143 0.9080 0.9080 0.9080 0.9080 0.9080
2817.576928 0.9080 0.9080 0.9080 0.9080 0.9070
2824.333713 0.9060 0.9060 0.9060 0.9055 0.9050
2831.090498 0.9050 0.9050 0.9050 0.9050 0.9040
2837.847283 0.9030 0.9030 0.9030 0.9030 0.9030
2844.604068 0.9020 0.9010 0.9010 0.9010 0.9010
2851.360853 0.9010 0.9005 0.9000 0.9000 0.9000
2858.117638 0.8990 0.8980 0.8980 0.8980 0.8960
2864.874423 0.8940 0.8940 0.8940 0.8935 0.8930
2871.631209 0.8910 0.8890 0.8890 0.8890 0.8885
2878.387994 0.8880 0.8860 0.8840 0.8835 0.8830
2885.144779 0.8820 0.8810 0.8800 0.8790 0.8775
2891.901564 0.8760 0.8760 0.8760 0.8740 0.8720
2898.658349 0.8695 0.8670 0.8645 0.8620 0.8605
2905.415134 0.8590 0.8580 0.8570 0.8570 0.8570
2912.171919 0.8560 0.8550 0.8525 0.8500 0.8495
2918.928704 0.8490 0.8480 0.8470 0.8420 0.8370
2925.685489 0.8325 0.8280 0.8275 0.8270 0.8260
2932.442274 0.8250 0.8191 0.8131 0.8090 0.8051
2939.199059 0.8030 0.8010 0.7951 0.7891 0.7825
2945.955844 0.7759 0.7614 0.7470 0.7360 0.7250
2952.712630 0.7190 0.7130 0.6946 0.6761 0.6606
2959.469415 0.6451 0.6227 0.6002 0.5748 0.5493
2966.226200 0.5204 0.4914 0.4502 0.4088 0.3792
2972.982985 0.3497 0.3078 0.2658 0.2189 0.1719
2979.739770 0.1330 0.0940 0.0671 0.0401 0.0340
2986.496555 0.0280 0.0280 0.0280 0.0364 0.0449
2993.253340 0.0534 0.0619 0.0763 0.0907 0.1179
3000.010125 0.1460 0.2808 0.4152 0.4481 0.4810
3006.766910 0.5070 0.5330 0.5579 0.5829 0.6054
3013.523695 0.6278 0.6473 0.6668 0.6833 0.6998
3020.280480 0.7108 0.7218 0.7299 0.7379 0.7440
3027.037265 0.7500 0.7560 0.7620 0.7690 0.7760
3033.794051 0.7785 0.7810 0.7835 0.7860 0.7895
3040.550836 0.7930 0.7955 0.7980 0.8005 0.8030
3047.307621 0.8065 0.8099 0.8100 0.8100 0.8130
3054.064406 0.8160 0.8190 0.8220 0.8225 0.8230
3060.821191 0.8250 0.8270 0.8275 0.8280 0.8290
3067.577976 0.8300 0.8315 0.8330 0.8340 0.8350
3074.334761 0.8385 0.8419 0.8454 0.8489 0.8495
3081.091546 0.8500 0.8510 0.8520 0.8530 0.8540
3087.848331 0.8565 0.8590 0.8605 0.8620 0.8640
3094.605116 0.8660 0.8665 0.8670 0.8705 0.8740
3101.361901 0.8755 0.8770 0.8780 0.8790 0.8800
3108.118686 0.8810 0.8825 0.8840 0.8840 0.8840
3114.875472 0.8835 0.8830 0.8830 0.8830 0.8835
3121.632257 0.8840 0.8865 0.8890 0.8910 0.8930
3128.389042 0.8930 0.8930 0.8920 0.8910 0.8900
3135.145827 0.8890 0.8885 0.8880 0.8880 0.8880
3141.902612 0.8880 0.8880 0.8880 0.8880 0.8880
3148.659397 0.8880 0.8860 0.8840 0.8835 0.8830
3155.416182 0.8830 0.8830 0.8835 0.8840 0.8840
3162.172967 0.8840 0.8850 0.8860 0.8860 0.8860
3168.929752 0.8860 0.8860 0.8870 0.8880 0.8880
3175.686537 0.8880 0.8880 0.8880 0.8880 0.8880
3182.443322 0.8880 0.8880 0.8880 0.8880 0.8870
3189.200107 0.8860 0.8860 0.8860 0.8860 0.8860
3195.956893 0.8850 0.8840 0.8840 0.8840 0.8835
3202.713678 0.8830 0.8810 0.8790 0.8780 0.8770
3209.470463 0.8765 0.8760 0.8760 0.8760 0.8765
3216.227248 0.8770 0.8780 0.8790 0.8800 0.8810
3222.984033 0.8820 0.8830 0.8835 0.8840 0.8850
3229.740818 0.8860 0.8875 0.8890 0.8900 0.8910
3236.497603 0.8910 0.8910 0.8910 0.8910 0.8925
3243.254388 0.8940 0.8950 0.8960 0.8970 0.8980
3250.011173 0.8980 0.8980 0.8980 0.8980 0.8980
3256.767958 0.8980 0.8970 0.8960 0.8960 0.8960
3263.524743 0.8950 0.8940 0.8940 0.8940 0.8940
3270.281528 0.8940 0.8950 0.8960 0.8970 0.8980
3277.038313 0.8980 0.8980 0.8980 0.8980 0.8990
3283.795099 0.9000 0.9000 0.9000 0.9000 0.9000
3290.551884 0.9000 0.9000 0.9005 0.9010 0.9010
3297.308669 0.9010 0.9010 0.9010 0.9010 0.9010
3304.065454 0.9010 0.9010 0.9010 0.9010 0.9010
3310.822239 0.9010 0.9010 0.9010 0.9010 0.9010
3317.579024 0.9010 0.9010 0.9005 0.9000 0.9000
3324.335809 0.9000 0.9000 0.9000 0.9000 0.9000
3331.092594 0.8990 0.8980 0.8980 0.8980 0.8970
3337.849379 0.8960 0.8960 0.8960 0.8960 0.8960
3344.606164 0.8970 0.8980 0.8980 0.8980 0.8980
3351.362949 0.8980 0.8980 0.8980 0.8980 0.8980
3358.119734 0.8980 0.8980 0.8990 0.9000 0.9000
3364.876520 0.9000 0.9005 0.9010 0.9010 0.9010
3371.633305 0.9010 0.9010 0.9010 0.9010 0.9010
3378.390090 0.9010 0.9010 0.9010 0.9010 0.9010
3385.146875 0.9010 0.9010 0.9020 0.9030 0.9030
3391.903660 0.9030 0.9030 0.9030 0.9030 0.9030
3398.660445 0.9030 0.9030 0.9030 0.9030 0.9030
3405.417230 0.9030 0.9030 0.9030 0.9040 0.9050
3412.174015 0.9050 0.9050 0.9050 0.9050 0.9050
3418.930800 0.9050 0.9050 0.9050 0.9050 0.9050
3425.687585 0.9050 0.9050 0.9050 0.9050 0.9050
3432.444370 0.9050 0.9040 0.9030 0.9030 0.9030
3439.201155 0.9030 0.9030 0.9030 0.9030 0.9030
3445.957941 0.9030 0.9020 0.9010 0.9010 0.9010
3452.714726 0.9010 0.9010 0.9010 0.9010 0.9005
3459.471511 0.9000 0.9000 0.9000 0.9000 0.9000
3466.228296 0.9000 0.9000 0.9005 0.9010 0.9010
3472.985081 0.9010 0.9020 0.9030 0.9030 0.9030
3479.741866 0.9030 0.9030 0.9030 0.9030 0.9030
3486.498651 0.9030 0.9030 0.9030 0.9030 0.9030
3493.255436 0.9030 0.9030 0.9030 0.9030 0.9040
3500.012221 0.9050 0.9050 0.9050 0.9050 0.9050
3506.769006 0.9050 0.9050 0.9050 0.9050 0.9050
3513.525791 0.9050 0.9050 0.9050 0.9050 0.9050
3520.282576 0.9050 0.9050 0.9040 0.9030 0.9030
3527.039362 0.9030 0.9020 0.9010 0.9010 0.9010
3533.796147 0.9010 0.9010 0.9010 0.9010 0.9020
3540.552932 0.9030 0.9030 0.9030 0.9040 0.9050
3547.309717 0.9050 0.9050 0.9050 0.9050 0.9050
3554.066502 0.9050 0.9055 0.9060 0.9060 0.9060
3560.823287 0.9060 0.9060 0.9060 0.9060 0.9060
3567.580072 0.9060 0.9055 0.9050 0.9040 0.9030
3574.336857 0.8995 0.8960 0.8925 0.8890 0.8890
3581.093642 0.8890 0.8910 0.8930 0.8970 0.9010
3587.850427 0.9010 0.9010 0.9020 0.9030 0.9030
3594.607212 0.9030 0.9020 0.9010 0.9005 0.9000
3601.363997 0.9000 0.9000 0.8990 0.8980 0.8990
3608.120783 0.9000 0.9005 0.9010 0.9020 0.9030
3614.877568 0.9030 0.9030 0.9030 0.9030 0.9030
3621.634353 0.9030 0.9030 0.9030 0.9020 0.9010
3628.391138 0.9010 0.9010 0.9010 0.9010 0.9010
3635.147923 0.9010 0.9010 0.9010 0.9010 0.9010
3641.904708 0.9005 0.9000 0.8990 0.8980 0.8980
3648.661493 0.8980 0.8990 0.9000 0.9000 0.9000
3655.418278 0.9000 0.9000 0.8990 0.8980 0.8980
3662.175063 0.8980 0.8970 0.8960 0.8960 0.8960
3668.931848 0.8950 0.8940 0.8935 0.8930 0.8910
3675.688633 0.8890 0.8865 0.8840 0.8815 0.8790
3682.445418 0.8765 0.8740 0.8715 0.8690 0.8665
3689.202204 0.8640 0.8640 0.8640 0.8665 0.8690
3695.958989 0.8705 0.8720 0.8745 0.8770 0.8790
3702.715774 0.8810 0.8845 0.8880 0.8930 0.8980
3709.472559 0.8990 0.9000 0.9000 0.9000 0.9005
3716.229344 0.9010 0.9010 0.9010 0.9010 0.9010
3722.986129 0.9020 0.9030 0.9030 0.9030 0.9030
3729.742914 0.9030 0.9030 0.9030 0.9040 0.9050
3736.499699 0.9050 0.9050 0.9050 0.9050 0.9050
3743.256484 0.9050 0.9050 0.9050 0.9050 0.9050
3750.013269 0.9040 0.9030 0.9030 0.9030 0.9030
3756.770054 0.9030 0.9030 0.9030 0.9020 0.9010
3763.526839 0.9010 0.9010 0.9010 0.9010 0.9010
3770.283624 0.9010 0.9010 0.9010 0.9010 0.9010
3777.040410 0.9010 0.9010 0.9010 0.9010 0.9010
3783.797195 0.9010 0.9020 0.9030 0.9040 0.9050
3790.553980 0.9050 0.9050 0.9050 0.9050 0.9050
3797.310765 0.9050 0.9050 0.9050 0.9055 0.9060
3804.067550 0.9070 0.9080 0.9080 0.9080 0.9090
3810.824335 0.9100 0.9105 0.9110 0.9120 0.9130
3817.581120 0.9130 0.9130 0.9115 0.9100 0.9090
3824.337905 0.9080 0.9080 0.9080 0.9090 0.9100
3831.094690 0.9105 0.9110 0.9110 0.9110 0.9105
3837.851475 0.9100 0.9090 0.9080 0.9080 0.9080
3844.608260 0.9080 0.9080 0.9070 0.9060 0.9070
3851.365045 0.9080 0.9080 0.9080 0.9090 0.9100
3858.121831 0.9100 0.9100 0.9100 0.9100 0.9105
3864.878616 0.9110 0.9110 0.9110 0.9110 0.9110
3871.635401 0.9110 0.9110 0.9110 0.9110 0.9110
3878.392186 0.9110 0.9110 0.9110 0.9110 0.9110
3885.148971 0.9105 0.9100 0.9100 0.9100 0.9090
3891.905756 0.9080 0.9070
##END=
