##TITLE=BUTANOIC ACID, 3-HYDROXY-, Beta-LACTONE
##JCAMP-DX=4.24
##DATA TYPE=INFRARED SPECTRUM
##CLASS=COBLENTZ III
##ORIGIN=DOW CHEMICAL COMPANY
##OWNER=COBLENTZ SOCIETY
Collection (C) 2018 copyright by the U.S. Secretary of Commerce
on behalf of the United States of America. All rights reserved.
##DATE=1969/02/13
##NAMES=4-methyl-2-oxetanone
##CAS REGISTRY NO=3068-88-0
##MOLFORM=C4 H6 O2
##SOURCE REFERENCE=COBLENTZ NO. 10200
##$NIST SOURCE=COBLENTZ
##$NIST IMAGE=cob10200
##SPECTROMETER/DATA SYSTEM=DOW KBr FOREPRISM-GRATING
##INSTRUMENT PARAMETERS=BLAZED AT 3.5, 12.0, 20.0 MICRON, CHANGED AT 5.0, 7.5, 14.9 MICRON
##STATE=LIQUID (NEAT)
##PATH LENGTH=CAPILLARY
##SAMPLING PROCEDURE=TRANSMISSION
##RESOLUTION=4
##DATA PROCESSING=DIGITIZED BY NIST FROM HARD COPY (FROM TWO SEGMENTS)
##XUNITS=1/CM
##YUNITS=TRANSMITTANCE
##XFACTOR=1.000000
##YFACTOR=1
##DELTAX=0.853244
##FIRSTX=382.253
##LASTX=3796.08
##FIRSTY=0.81
##MAXX=3796.08
##MINX=382.253
##MAXY=1
##MINY=0.098
##NPOINTS=4002
##XYDATA=(X++(Y..Y))
382.253000 0.8100 0.8090 0.8090 0.8080 0.8080
386.519219 0.8080 0.8080 0.8080 0.8080 0.8080
390.785438 0.8080 0.8080 0.8080 0.8080 0.8080
395.051656 0.8080 0.8090 0.8090 0.8090 0.8090
399.317875 0.8090 0.8090 0.8090 0.8090 0.8090
403.584094 0.8090 0.8090 0.8090 0.8100 0.8100
407.850313 0.8100 0.8100 0.8120 0.8120 0.8120
412.116531 0.8120 0.8120 0.8120 0.8120 0.8120
416.382750 0.8120 0.8120 0.8120 0.8120 0.8130
420.648969 0.8130 0.8130 0.8130 0.8140 0.8140
424.915188 0.8140 0.8160 0.8160 0.8160 0.8170
429.181406 0.8170 0.8180 0.8200 0.8210 0.8220
433.447625 0.8220 0.8220 0.8220 0.8240 0.8260
437.713844 0.8300 0.8330 0.8330 0.8360 0.8380
441.980063 0.8410 0.8420 0.8440 0.8450 0.8460
446.246281 0.8460 0.8480 0.8490 0.8500 0.8520
450.512500 0.8530 0.8540 0.8540 0.8570 0.8570
454.778719 0.8570 0.8580 0.8580 0.8580 0.8580
459.044938 0.8600 0.8600 0.8610 0.8620 0.8640
463.311157 0.8660 0.8690 0.8700 0.8700 0.8700
467.577375 0.8700 0.8720 0.8740 0.8740 0.8760
471.843594 0.8770 0.8800 0.8810 0.8820 0.8840
476.109813 0.8840 0.8840 0.8850 0.8890 0.8900
480.376032 0.8920 0.8940 0.8960 0.8970 0.8980
484.642250 0.8980 0.9000 0.9010 0.9010 0.9020
488.908469 0.9020 0.9040 0.9050 0.9050 0.9050
493.174688 0.9050 0.9050 0.9050 0.9050 0.9050
497.440907 0.9050 0.9050 0.9040 0.9040 0.9010
501.707125 0.9000 0.8970 0.8940 0.8920 0.8890
505.973344 0.8850 0.8810 0.8720 0.8640 0.8570
510.239563 0.8440 0.8410 0.8410 0.8450 0.8610
514.505782 0.8640 0.8640 0.8620 0.8580 0.8540
518.772000 0.8490 0.8480 0.8450 0.8450 0.8460
523.038219 0.8540 0.8650 0.8730 0.8800 0.8880
527.304438 0.8930 0.8940 0.8970 0.9000 0.9040
531.570657 0.9050 0.9060 0.9060 0.9080 0.9090
535.836876 0.9090 0.9090 0.9090 0.9090 0.9100
540.103094 0.9120 0.9140 0.9140 0.9160 0.9160
544.369313 0.9160 0.9170 0.9170 0.9180 0.9210
548.635532 0.9240 0.9250 0.9250 0.9250 0.9250
552.901751 0.9260 0.9260 0.9280 0.9300 0.9300
557.167969 0.9290 0.9280 0.9280 0.9280 0.9280
561.434188 0.9290 0.9290 0.9300 0.9300 0.9320
565.700407 0.9320 0.9320 0.9330 0.9340 0.9360
569.966626 0.9370 0.9380 0.9380 0.9400 0.9400
574.232844 0.9400 0.9400 0.9410 0.9410 0.9410
578.499063 0.9410 0.9410 0.9410 0.9400 0.9400
582.765282 0.9400 0.9400 0.9380 0.9370 0.9360
587.031501 0.9360 0.9360 0.9370 0.9400 0.9420
591.297719 0.9440 0.9440 0.9440 0.9440 0.9440
595.563938 0.9450 0.9460 0.9480 0.9480 0.9480
599.830157 0.9480 0.9480 0.9460 0.9460 0.9450
604.096376 0.9450 0.9440 0.9440 0.9420 0.9420
608.362595 0.9410 0.9410 0.9420 0.9440 0.9440
612.628813 0.9420 0.9420 0.9420 0.9440 0.9440
616.895032 0.9450 0.9450 0.9450 0.9450 0.9460
621.161251 0.9460 0.9480 0.9480 0.9480 0.9480
625.427470 0.9480 0.9480 0.9480 0.9480 0.9480
629.693688 0.9480 0.9460 0.9450 0.9450 0.9440
633.959907 0.9440 0.9440 0.9440 0.9440 0.9440
638.226126 0.9440 0.9440 0.9420 0.9420 0.9420
642.492345 0.9420 0.9410 0.9410 0.9410 0.9410
646.758563 0.9410 0.9420 0.9410 0.9410 0.9410
651.024782 0.9410 0.9410 0.9410 0.9400 0.9400
655.291001 0.9400 0.9380 0.9380 0.9360 0.9360
659.557220 0.9340 0.9330 0.9300 0.9290 0.9240
663.823438 0.9160 0.8900 0.8810 0.8810 0.8900
668.089657 0.8900 0.9010 0.9179 0.9200 0.9120
672.355876 0.9120 0.9120 0.9120 0.9120 0.9130
676.622095 0.9130 0.9140 0.9140 0.9140 0.9140
680.888314 0.9160 0.9160 0.9160 0.9160 0.9160
685.154532 0.9160 0.9160 0.9160 0.9160 0.9160
689.420751 0.9160 0.9140 0.9130 0.9130 0.9130
693.686970 0.9120 0.9120 0.9120 0.9120 0.9120
697.953189 0.9100 0.9100 0.9100 0.9100 0.9140
702.219407 0.9160 0.9160 0.9160 0.9160 0.9160
706.485626 0.9160 0.9140 0.9140 0.9130 0.9100
710.751845 0.9080 0.9050 0.9020 0.9010 0.9000
715.018064 0.8980 0.9000 0.9040 0.9090 0.9120
719.284282 0.9140 0.9180 0.9250 0.9290 0.9320
723.550501 0.9330 0.9340 0.9410 0.9440 0.9450
727.816720 0.9460 0.9480 0.9490 0.9490 0.9500
732.082939 0.9500 0.9520 0.9530 0.9540 0.9560
736.349157 0.9560 0.9570 0.9580 0.9580 0.9610
740.615376 0.9620 0.9640 0.9640 0.9650 0.9650
744.881595 0.9680 0.9680 0.9680 0.9680 0.9680
749.147814 0.9680 0.9690 0.9700 0.9700 0.9720
753.414033 0.9720 0.9720 0.9730 0.9730 0.9730
757.680251 0.9730 0.9730 0.9740 0.9760 0.9760
761.946470 0.9770 0.9770 0.9770 0.9780 0.9780
766.212689 0.9780 0.9780 0.9780 0.9800 0.9800
770.478908 0.9800 0.9800 0.9810 0.9820 0.9820
774.745126 0.9820 0.9840 0.9840 0.9840 0.9840
779.011345 0.9840 0.9820 0.9810 0.9800 0.9800
783.277564 0.9800 0.9800 0.9800 0.9780 0.9780
787.543783 0.9780 0.9780 0.9770 0.9770 0.9740
791.810001 0.9730 0.9720 0.9700 0.9690 0.9680
796.076220 0.9660 0.9650 0.9640 0.9610 0.9580
800.342439 0.9570 0.9560 0.9540 0.9530 0.9490
804.608658 0.9450 0.9420 0.9360 0.9320 0.9250
808.874876 0.9200 0.9100 0.8970 0.8850 0.8700
813.141095 0.8560 0.8370 0.8161 0.7901 0.7641
817.407314 0.7360 0.7060 0.6770 0.6490 0.6010
821.673533 0.5850 0.5850 0.6020 0.6050 0.6040
825.939752 0.5960 0.5760 0.5610 0.5500 0.5340
830.205970 0.5100 0.4821 0.4800 0.4810 0.4940
834.472189 0.5060 0.5220 0.5520 0.5780 0.6160
838.738408 0.6410 0.6959 0.7459 0.7839 0.8119
843.004627 0.8360 0.8530 0.8680 0.8800 0.8890
847.270845 0.9010 0.9120 0.9210 0.9290 0.9370
851.537064 0.9420 0.9480 0.9500 0.9530 0.9540
855.803283 0.9540 0.9570 0.9580 0.9580 0.9600
860.069502 0.9610 0.9620 0.9640 0.9640 0.9650
864.335720 0.9650 0.9660 0.9660 0.9680 0.9690
868.601939 0.9700 0.9700 0.9700 0.9700 0.9700
872.868158 0.9720 0.9730 0.9730 0.9740 0.9740
877.134377 0.9760 0.9760 0.9760 0.9760 0.9760
881.400595 0.9770 0.9770 0.9770 0.9770 0.9770
885.666814 0.9770 0.9770 0.9760 0.9760 0.9760
889.933033 0.9740 0.9740 0.9730 0.9700 0.9690
894.199252 0.9680 0.9660 0.9620 0.9610 0.9580
898.465470 0.9570 0.9570 0.9560 0.9540 0.9490
902.731689 0.9480 0.9480 0.9520 0.9530 0.9560
906.997908 0.9570 0.9610 0.9640 0.9660 0.9690
911.264127 0.9730 0.9730 0.9740 0.9760 0.9770
915.530346 0.9770 0.9770 0.9770 0.9770 0.9770
919.796564 0.9770 0.9760 0.9760 0.9760 0.9760
924.062783 0.9740 0.9730 0.9730 0.9720 0.9700
928.329002 0.9700 0.9700 0.9680 0.9660 0.9660
932.595221 0.9650 0.9640 0.9610 0.9580 0.9570
936.861439 0.9540 0.9530 0.9520 0.9480 0.9420
941.127658 0.9380 0.9330 0.9320 0.9280 0.9210
945.393877 0.9140 0.9050 0.8960 0.8890 0.8840
949.660096 0.8800 0.8770 0.8740 0.8730 0.8730
953.926314 0.8720 0.8720 0.8700 0.8690 0.8660
958.192533 0.8620 0.8580 0.8500 0.8400 0.8250
962.458752 0.8080 0.7860 0.7690 0.7580 0.7570
966.724971 0.7580 0.7770 0.8000 0.8249 0.8579
970.991189 0.8860 0.9010 0.9120 0.9210 0.9280
975.257408 0.9330 0.9330 0.9360 0.9380 0.9400
979.523627 0.9410 0.9440 0.9460 0.9480 0.9480
983.789846 0.9480 0.9500 0.9530 0.9530 0.9540
988.056065 0.9540 0.9540 0.9540 0.9540 0.9530
992.322283 0.9520 0.9500 0.9490 0.9480 0.9460
996.588502 0.9450 0.9440 0.9420 0.9400 0.9360
1000.854721 0.9330 0.9300 0.9250 0.9220 0.9180
1005.120940 0.9140 0.9100 0.9040 0.8900 0.8810
1009.387158 0.8740 0.8640 0.8560 0.8440 0.8240
1013.653377 0.8040 0.7860 0.7650 0.7380 0.7040
1017.919596 0.6720 0.6460 0.6081 0.5521 0.5131
1022.185815 0.4760 0.4580 0.4570 0.4580 0.4770
1026.452033 0.5040 0.5440 0.6169 0.6240 0.6818
1030.718252 0.7371 0.7740 0.8000 0.8210 0.8380
1034.984471 0.8520 0.8640 0.8720 0.8800 0.8860
1039.250690 0.8920 0.9000 0.9020 0.9020 0.9020
1043.516908 0.9020 0.9020 0.9010 0.9010 0.9000
1047.783127 0.8970 0.8940 0.8920 0.8890 0.8850
1052.049346 0.8780 0.8770 0.8730 0.8690 0.8660
1056.315565 0.8620 0.8580 0.8560 0.8530 0.8500
1060.581784 0.8490 0.8480 0.8480 0.8490 0.8530
1064.848002 0.8600 0.8690 0.8740 0.8840 0.8900
1069.114221 0.8940 0.9020 0.9100 0.9170 0.9210
1073.380440 0.9220 0.9240 0.9240 0.9240 0.9240
1077.646659 0.9240 0.9220 0.9220 0.9210 0.9180
1081.912877 0.9170 0.9140 0.9140 0.9130 0.9120
1086.179096 0.9100 0.9090 0.9060 0.9040 0.9010
1090.445315 0.8980 0.8930 0.8860 0.8810 0.8760
1094.711534 0.8720 0.8640 0.8540 0.8410 0.8300
1098.977752 0.8160 0.8010 0.7900 0.7780 0.7700
1103.243971 0.7620 0.7620 0.7660 0.7700 0.7720
1107.510190 0.7740 0.7740 0.7720 0.7680 0.7600
1111.776409 0.7520 0.7400 0.7280 0.7130 0.7000
1116.042627 0.6810 0.6640 0.6450 0.6320 0.5980
1120.308846 0.5570 0.5220 0.4941 0.4701 0.4491
1124.575065 0.4259 0.4010 0.3940 0.3880 0.3860
1128.841284 0.3860 0.3900 0.3980 0.4090 0.4260
1133.107503 0.4370 0.4520 0.4690 0.4970 0.5180
1137.373721 0.5420 0.5600 0.5720 0.5880 0.6040
1141.639940 0.6130 0.6160 0.6240 0.6330 0.6420
1145.906159 0.6490 0.6620 0.6780 0.6880 0.7099
1150.172378 0.7340 0.7560 0.7760 0.7940 0.8060
1154.438596 0.8180 0.8290 0.8400 0.8500 0.8580
1158.704815 0.8660 0.8730 0.8780 0.8800 0.8820
1162.971034 0.8850 0.8850 0.8840 0.8820 0.8820
1167.237253 0.8810 0.8810 0.8800 0.8770 0.8730
1171.503471 0.8690 0.8660 0.8620 0.8570 0.8520
1175.769690 0.8440 0.8340 0.8260 0.8140 0.8050
1180.035909 0.7920 0.7780 0.7700 0.7660 0.7650
1184.302128 0.7680 0.7760 0.7890 0.7960 0.8100
1188.568346 0.8160 0.8260 0.8320 0.8380 0.8420
1192.834565 0.8440 0.8440 0.8440 0.8420 0.8410
1197.100784 0.8370 0.8320 0.8260 0.8170 0.8050
1201.367003 0.7850 0.7760 0.7580 0.7570 0.7580
1205.633222 0.7650 0.7760 0.7890 0.8050 0.8200
1209.899440 0.8410 0.8610 0.8760 0.8880 0.8940
1214.165659 0.9010 0.9090 0.9130 0.9140 0.9180
1218.431878 0.9200 0.9240 0.9260 0.9280 0.9290
1222.698097 0.9300 0.9300 0.9300 0.9300 0.9300
1226.964315 0.9290 0.9280 0.9280 0.9280 0.9260
1231.230534 0.9260 0.9260 0.9250 0.9250 0.9240
1235.496753 0.9220 0.9210 0.9200 0.9180 0.9180
1239.762972 0.9170 0.9140 0.9140 0.9130 0.9120
1244.029190 0.9100 0.9060 0.9050 0.9020 0.9010
1248.295409 0.9000 0.8960 0.8940 0.8930 0.8920
1252.561628 0.8920 0.8920 0.8900 0.8900 0.8890
1256.827847 0.8890 0.8880 0.8880 0.8850 0.8850
1261.094065 0.8840 0.8820 0.8810 0.8810 0.8800
1265.360284 0.8780 0.8770 0.8770 0.8760 0.8730
1269.626503 0.8720 0.8700 0.8640 0.8580 0.8540
1273.892722 0.8520 0.8450 0.8360 0.8300 0.8160
1278.158941 0.8000 0.7880 0.7720 0.7500 0.7240
1282.425159 0.6980 0.6760 0.6560 0.6291 0.6090
1286.691378 0.5879 0.5690 0.5610 0.5600 0.5580
1290.957597 0.5600 0.5800 0.5960 0.6090 0.6300
1295.223816 0.6611 0.7010 0.7320 0.7570 0.7770
1299.490034 0.7930 0.8050 0.8160 0.8220 0.8300
1303.756253 0.8340 0.8410 0.8440 0.8500 0.8530
1308.022472 0.8570 0.8620 0.8690 0.8730 0.8820
1312.288691 0.8880 0.8900 0.8920 0.8930 0.8970
1316.554909 0.8970 0.8980 0.8980 0.9000 0.9000
1320.821128 0.9000 0.8980 0.8980 0.8980 0.8980
1325.087347 0.9010 0.9020 0.9050 0.9060 0.9060
1329.353566 0.9080 0.9130 0.9340 0.9440 0.9440
1333.619784 0.9440 0.9420 0.9410 0.9410 0.9400
1337.886003 0.9380 0.9380 0.9340 0.9300 0.9250
1342.152222 0.9200 0.9140 0.9100 0.9020 0.8930
1346.418441 0.8860 0.8730 0.8610 0.8490 0.8170
1350.684660 0.7980 0.7810 0.7620 0.7600 0.7620
1354.950878 0.7760 0.7960 0.8140 0.8370 0.8570
1359.217097 0.8650 0.8770 0.8900 0.8930 0.8940
1363.483316 0.8980 0.9000 0.9000 0.9000 0.9000
1367.749535 0.9000 0.8980 0.8970 0.8960 0.8930
1372.015753 0.8920 0.8900 0.8890 0.8850 0.8810
1376.281972 0.8780 0.8720 0.8680 0.8620 0.8520
1380.548191 0.8359 0.8130 0.7890 0.7740 0.7500
1384.814410 0.7240 0.6640 0.6520 0.6370 0.6220
1389.080628 0.6080 0.6081 0.6580 0.6601 0.7370
1393.346847 0.7480 0.7810 0.8240 0.8330 0.8490
1397.613066 0.8570 0.8620 0.8640 0.8620 0.8600
1401.879285 0.8560 0.8530 0.8480 0.8420 0.8380
1406.145503 0.8340 0.8330 0.8330 0.8330 0.8330
1410.411722 0.8330 0.8330 0.8330 0.8340 0.8340
1414.677941 0.8340 0.8360 0.8360 0.8360 0.8370
1418.944160 0.8380 0.8380 0.8400 0.8400 0.8420
1423.210379 0.8440 0.8490 0.8560 0.8660 0.8730
1427.476597 0.8810 0.8880 0.8960 0.9050 0.9140
1431.742816 0.9240 0.9300 0.9340 0.9380 0.9400
1436.009035 0.9410 0.9410 0.9400 0.9400 0.9400
1440.275254 0.9380 0.9360 0.9340 0.9330 0.9320
1444.541472 0.9300 0.9290 0.9280 0.9250 0.9200
1448.807691 0.9160 0.9100 0.9060 0.9010 0.8970
1453.073910 0.8930 0.8920 0.8900 0.8920 0.8930
1457.340129 0.9010 0.9050 0.9100 0.9170 0.9220
1461.606347 0.9300 0.9380 0.9440 0.9480 0.9540
1465.872566 0.9560 0.9570 0.9600 0.9620 0.9640
1470.138785 0.9660 0.9680 0.9690 0.9700 0.9720
1474.405004 0.9720 0.9740 0.9740 0.9760 0.9760
1478.671222 0.9770 0.9780 0.9780 0.9800 0.9800
1482.937441 0.9810 0.9810 0.9810 0.9820 0.9820
1487.203660 0.9820 0.9840 0.9840 0.9840 0.9850
1491.469879 0.9850 0.9850 0.9850 0.9860 0.9860
1495.736098 0.9850 0.9850 0.9860 0.9860 0.9860
1500.002316 0.9860 0.9880 0.9860 0.9860 0.9860
1504.268535 0.9860 0.9880 0.9880 0.9880 0.9860
1508.534754 0.9860 0.9880 0.9890 0.9890 0.9880
1512.800973 0.9880 0.9860 0.9860 0.9860 0.9850
1517.067191 0.9850 0.9860 0.9860 0.9850 0.9850
1521.333410 0.9850 0.9850 0.9850 0.9850 0.9850
1525.599629 0.9850 0.9860 0.9850 0.9850 0.9850
1529.865848 0.9850 0.9850 0.9850 0.9850 0.9850
1534.132066 0.9850 0.9850 0.9860 0.9860 0.9860
1538.398285 0.9860 0.9860 0.9860 0.9860 0.9880
1542.664504 0.9860 0.9860 0.9880 0.9880 0.9880
1546.930723 0.9890 0.9890 0.9890 0.9890 0.9890
1551.196941 0.9880 0.9860 0.9860 0.9850 0.9850
1555.463160 0.9850 0.9850 0.9850 0.9840 0.9840
1559.729379 0.9840 0.9840 0.9840 0.9840 0.9840
1563.995598 0.9840 0.9840 0.9820 0.9820 0.9820
1568.261817 0.9810 0.9810 0.9810 0.9810 0.9810
1572.528035 0.9810 0.9800 0.9800 0.9780 0.9780
1576.794254 0.9780 0.9780 0.9800 0.9800 0.9810
1581.060473 0.9820 0.9820 0.9820 0.9820 0.9810
1585.326692 0.9810 0.9820 0.9850 0.9860 0.9880
1589.592910 0.9880 0.9890 0.9890 0.9890 0.9890
1593.859129 0.9890 0.9890 0.9890 0.9890 0.9890
1598.125348 0.9890 0.9900 0.9900 0.9900 0.9890
1602.391567 0.9890 0.9880 0.9880 0.9860 0.9860
1606.657785 0.9850 0.9850 0.9840 0.9840 0.9820
1610.924004 0.9820 0.9810 0.9800 0.9800 0.9780
1615.190223 0.9780 0.9770 0.9770 0.9760 0.9760
1619.456442 0.9760 0.9770 0.9770 0.9760 0.9740
1623.722660 0.9740 0.9730 0.9730 0.9730 0.9730
1627.988879 0.9730 0.9730 0.9730 0.9720 0.9720
1632.255098 0.9720 0.9720 0.9730 0.9730 0.9730
1636.521317 0.9730 0.9740 0.9740 0.9740 0.9740
1640.787536 0.9740 0.9730 0.9720 0.9700 0.9700
1645.053754 0.9720 0.9720 0.9720 0.9720 0.9690
1649.319973 0.9650 0.9650 0.9660 0.9730 0.9770
1653.586192 0.9770 0.9780 0.9800 0.9780 0.9760
1657.852411 0.9760 0.9780 0.9820 0.9820 0.9840
1662.118629 0.9840 0.9840 0.9810 0.9810 0.9880
1666.384848 0.9930 0.9930 0.9940 0.9940 0.9970
1670.651067 0.9980 0.9980 1.0000 1.0000 1.0000
1674.917286 1.0000 1.0000 0.9980 0.9980 0.9980
1679.183504 0.9970 0.9970 0.9970 0.9970 0.9970
1683.449723 0.9970 0.9980 0.9980 0.9980 0.9970
1687.715942 0.9970 0.9970 0.9970 0.9970 0.9970
1691.982161 0.9970 0.9970 0.9970 0.9970 0.9960
1696.248379 0.9960 0.9940 0.9940 0.9930 0.9920
1700.514598 0.9900 0.9890 0.9860 0.9850 0.9840
1704.780817 0.9810 0.9780 0.9770 0.9760 0.9730
1709.047036 0.9700 0.9680 0.9650 0.9610 0.9570
1713.313255 0.9560 0.9530 0.9460 0.9410 0.9340
1717.579473 0.9280 0.9210 0.9140 0.9080 0.8980
1721.845692 0.8890 0.8760 0.8720 0.8650 0.8560
1726.111911 0.8520 0.8440 0.8380 0.8300 0.8250
1730.378130 0.8180 0.8160 0.8130 0.8120 0.8100
1734.644348 0.8100 0.8120 0.8120 0.8140 0.8170
1738.910567 0.8260 0.8340 0.8440 0.8570 0.8730
1743.176786 0.8800 0.8900 0.9000 0.9090 0.9140
1747.443005 0.9160 0.9170 0.9170 0.9170 0.9160
1751.709223 0.9120 0.9090 0.9060 0.9020 0.8980
1755.975442 0.8920 0.8890 0.8810 0.8740 0.8720
1760.241661 0.8660 0.8600 0.8540 0.8500 0.8480
1764.507880 0.8410 0.8380 0.8300 0.8210 0.8130
1768.774098 0.8060 0.8040 0.8020 0.8020 0.8010
1773.040317 0.8010 0.8010 0.8010 0.8020 0.8020
1777.306536 0.8020 0.8040 0.8040 0.8040 0.8040
1781.572755 0.8040 0.8020 0.8010 0.7970 0.7960
1785.838973 0.7940 0.7860 0.7820 0.7770 0.7720
1790.105192 0.7599 0.7449 0.7290 0.7120 0.7020
1794.371411 0.6880 0.6620 0.6450 0.6280 0.5960
1798.637630 0.5639 0.5209 0.4739 0.4279 0.3890
1802.903849 0.3610 0.3360 0.3000 0.2570 0.2340
1807.170067 0.2139 0.1980 0.1840 0.1720 0.1610
1811.436286 0.1520 0.1410 0.1290 0.1120 0.1040
1815.702505 0.1010 0.1000 0.1000 0.0980 0.0980
1819.968724 0.0980 0.1000 0.1010 0.1080 0.1140
1824.234942 0.1240 0.1300 0.1360 0.1440 0.1500
1828.501161 0.1580 0.1660 0.1740 0.1930 0.1980
1832.767380 0.2040 0.2120 0.2220 0.2340 0.2500
1837.033599 0.2660 0.2850 0.3050 0.3250 0.3460
1841.299817 0.3691 0.3921 0.4140 0.4360 0.4570
1845.566036 0.4800 0.5060 0.5370 0.5560 0.5760
1849.832255 0.6041 0.6261 0.6541 0.6781 0.7080
1854.098474 0.7260 0.7400 0.7570 0.7760 0.7890
1858.364692 0.8000 0.8120 0.8220 0.8330 0.8410
1862.630911 0.8520 0.8540 0.8650 0.8720 0.8780
1866.897130 0.8880 0.8920 0.8930 0.8960 0.9010
1871.163349 0.9050 0.9100 0.9140 0.9170 0.9200
1875.429568 0.9250 0.9280 0.9320 0.9330 0.9340
1879.695786 0.9360 0.9380 0.9400 0.9420 0.9440
1883.962005 0.9440 0.9480 0.9500 0.9520 0.9540
1888.228224 0.9540 0.9560 0.9560 0.9560 0.9560
1892.494443 0.9560 0.9560 0.9560 0.9560 0.9560
1896.760661 0.9560 0.9540 0.9540 0.9530 0.9530
1901.026880 0.9520 0.9490 0.9460 0.9450 0.9440
1905.293099 0.9420 0.9410 0.9410 0.9400 0.9400
1909.559318 0.9380 0.9380 0.9370 0.9370 0.9360
1913.825536 0.9340 0.9340 0.9340 0.9340 0.9330
1918.091755 0.9330 0.9330 0.9330 0.9330 0.9340
1922.357974 0.9360 0.9360 0.9380 0.9380 0.9410
1926.624193 0.9420 0.9460 0.9490 0.9540 0.9540
1930.890411 0.9540 0.9560 0.9560 0.9560 0.9560
1935.156630 0.9560 0.9540 0.9540 0.9540 0.9530
1939.422849 0.9530 0.9520 0.9490 0.9480 0.9450
1943.689068 0.9420 0.9410 0.9400 0.9400 0.9400
1947.955287 0.9410 0.9410 0.9400 0.9380 0.9370
1952.221505 0.9300 0.9200 0.9000 0.8890 0.8890
1956.487724 0.9170 0.9240 0.9360 0.9560 0.9570
1960.753943 0.9600 0.9620 0.9660 0.9690 0.9720
1965.020162 0.9730 0.9760 0.9760 0.9770 0.9770
1969.286380 0.9770 0.9770 0.9780 0.9800 0.9810
1973.552599 0.9810 0.9820 0.9820 0.9820 0.9820
1977.818818 0.9840 0.9840 0.9840 0.9840 0.9850
1982.085037 0.9850 0.9860 0.9860 0.9850 0.9850
1986.351255 0.9850 0.9850 0.9840 0.9840 0.9840
1990.617474 0.9850 0.9850 0.9840 0.9840 0.9840
1994.883693 0.9840 0.9840 0.9840 0.9840 0.9820
1999.149912 0.9820 0.9820 0.9820 0.9820 0.9820
2003.416130 0.9820 0.9830 0.9840 0.9840 0.9840
2007.682349 0.9840 0.9840 0.9840 0.9840 0.9840
2011.948568 0.9840 0.9845 0.9850 0.9850 0.9850
2016.214787 0.9850 0.9850 0.9850 0.9850 0.9850
2020.481006 0.9850 0.9845 0.9840 0.9830 0.9820
2024.747224 0.9815 0.9810 0.9805 0.9800 0.9800
2029.013443 0.9800 0.9790 0.9780 0.9780 0.9780
2033.279662 0.9780 0.9780 0.9790 0.9800 0.9805
2037.545881 0.9810 0.9815 0.9820 0.9820 0.9821
2041.812099 0.9831 0.9840 0.9840 0.9840 0.9840
2046.078318 0.9840 0.9840 0.9840 0.9840 0.9840
2050.344537 0.9845 0.9850 0.9850 0.9850 0.9850
2054.610756 0.9850 0.9850 0.9850 0.9845 0.9840
2058.876974 0.9840 0.9840 0.9840 0.9840 0.9840
2063.143193 0.9840 0.9845 0.9850 0.9850 0.9850
2067.409412 0.9850 0.9850 0.9850 0.9850 0.9850
2071.675631 0.9850 0.9845 0.9840 0.9840 0.9840
2075.941849 0.9840 0.9840 0.9840 0.9840 0.9840
2080.208068 0.9840 0.9840 0.9840 0.9840 0.9840
2084.474287 0.9840 0.9840 0.9840 0.9840 0.9840
2088.740506 0.9840 0.9840 0.9839 0.9829 0.9820
2093.006725 0.9820 0.9819 0.9814 0.9810 0.9810
2097.272943 0.9809 0.9804 0.9800 0.9800 0.9799
2101.539162 0.9789 0.9780 0.9780 0.9779 0.9774
2105.805381 0.9770 0.9770 0.9770 0.9770 0.9769
2110.071600 0.9764 0.9760 0.9760 0.9760 0.9760
2114.337818 0.9760 0.9760 0.9760 0.9760 0.9760
2118.604037 0.9760 0.9761 0.9766 0.9770 0.9770
2122.870256 0.9770 0.9770 0.9770 0.9770 0.9770
2127.136475 0.9770 0.9770 0.9770 0.9770 0.9770
2131.402693 0.9770 0.9770 0.9770 0.9770 0.9770
2135.668912 0.9770 0.9770 0.9770 0.9769 0.9764
2139.935131 0.9760 0.9760 0.9760 0.9760 0.9760
2144.201350 0.9760 0.9758 0.9748 0.9739 0.9734
2148.467568 0.9730 0.9730 0.9727 0.9712 0.9700
2152.733787 0.9700 0.9700 0.9700 0.9700 0.9700
2157.000006 0.9700 0.9700 0.9700 0.9700 0.9702
2161.266225 0.9712 0.9720 0.9720 0.9720 0.9720
2165.532444 0.9720 0.9720 0.9721 0.9726 0.9730
2169.798662 0.9730 0.9731 0.9736 0.9740 0.9740
2174.064881 0.9742 0.9752 0.9760 0.9760 0.9760
2178.331100 0.9760 0.9761 0.9766 0.9770 0.9770
2182.597319 0.9771 0.9776 0.9780 0.9780 0.9780
2186.863537 0.9780 0.9780 0.9780 0.9780 0.9780
2191.129756 0.9783 0.9793 0.9797 0.9787 0.9783
2195.395975 0.9793 0.9801 0.9806 0.9809 0.9804
2199.662194 0.9800 0.9800 0.9800 0.9800 0.9800
2203.928412 0.9800 0.9797 0.9787 0.9780 0.9780
2208.194631 0.9780 0.9780 0.9780 0.9780 0.9779
2212.460850 0.9774 0.9770 0.9770 0.9769 0.9764
2216.727069 0.9760 0.9760 0.9760 0.9760 0.9760
2220.993287 0.9760 0.9760 0.9760 0.9757 0.9747
2225.259506 0.9743 0.9753 0.9760 0.9760 0.9757
2229.525725 0.9747 0.9738 0.9733 0.9728 0.9723
2233.791944 0.9720 0.9720 0.9720 0.9720 0.9722
2238.058163 0.9727 0.9730 0.9730 0.9732 0.9737
2242.324381 0.9740 0.9740 0.9737 0.9727 0.9720
2246.590600 0.9720 0.9720 0.9720 0.9720 0.9720
2250.856819 0.9717 0.9707 0.9700 0.9700 0.9700
2255.123038 0.9700 0.9700 0.9700 0.9703 0.9713
2259.389256 0.9722 0.9727 0.9735 0.9750 0.9760
2263.655475 0.9760 0.9760 0.9760 0.9760 0.9760
2267.921694 0.9760 0.9760 0.9760 0.9760 0.9760
2272.187913 0.9760 0.9760 0.9760 0.9760 0.9760
2276.454131 0.9760 0.9760 0.9760 0.9760 0.9760
2280.720350 0.9760 0.9756 0.9746 0.9740 0.9740
2284.986569 0.9744 0.9754 0.9760 0.9760 0.9760
2289.252788 0.9760 0.9760 0.9760 0.9762 0.9767
2293.519006 0.9770 0.9770 0.9770 0.9770 0.9770
2297.785225 0.9770 0.9770 0.9770 0.9764 0.9749
2302.051444 0.9740 0.9740 0.9744 0.9754 0.9770
2306.317663 0.9795 0.9816 0.9831 0.9840 0.9840
2310.583882 0.9834 0.9819 0.9802 0.9782 0.9764
2314.850100 0.9749 0.9740 0.9740 0.9744 0.9754
2319.116319 0.9764 0.9774 0.9786 0.9801 0.9816
2323.382538 0.9831 0.9842 0.9847 0.9850 0.9850
2327.648757 0.9850 0.9850 0.9850 0.9850 0.9850
2331.914975 0.9850 0.9848 0.9843 0.9840 0.9840
2336.181194 0.9840 0.9840 0.9840 0.9840 0.9840
2340.447413 0.9840 0.9835 0.9825 0.9818 0.9813
2344.713632 0.9810 0.9810 0.9808 0.9803 0.9795
2348.979850 0.9785 0.9780 0.9780 0.9780 0.9780
2353.246069 0.9780 0.9780 0.9780 0.9780 0.9780
2357.512288 0.9780 0.9778 0.9773 0.9770 0.9770
2361.778507 0.9770 0.9770 0.9770 0.9770 0.9768
2366.044725 0.9763 0.9760 0.9760 0.9755 0.9745
2370.310944 0.9740 0.9740 0.9738 0.9733 0.9730
2374.577163 0.9730 0.9727 0.9722 0.9720 0.9720
2378.843382 0.9723 0.9728 0.9730 0.9730 0.9730
2383.109601 0.9730 0.9730 0.9730 0.9730 0.9730
2387.375819 0.9730 0.9730 0.9730 0.9730 0.9727
2391.642038 0.9722 0.9715 0.9705 0.9700 0.9700
2395.908257 0.9700 0.9700 0.9700 0.9700 0.9697
2400.174476 0.9692 0.9687 0.9682 0.9672 0.9657
2404.440694 0.9647 0.9642 0.9635 0.9625 0.9620
2408.706913 0.9620 0.9620 0.9620 0.9620 0.9620
2412.973132 0.9620 0.9620 0.9620 0.9620 0.9620
2417.239351 0.9620 0.9626 0.9636 0.9640 0.9640
2421.505569 0.9640 0.9640 0.9643 0.9648 0.9653
2425.771788 0.9658 0.9660 0.9660 0.9666 0.9676
2430.038007 0.9680 0.9680 0.9680 0.9680 0.9680
2434.304226 0.9680 0.9680 0.9680 0.9683 0.9688
2438.570444 0.9690 0.9690 0.9690 0.9690 0.9690
2442.836663 0.9690 0.9690 0.9690 0.9690 0.9690
2447.102882 0.9690 0.9690 0.9690 0.9690 0.9693
2451.369101 0.9698 0.9697 0.9692 0.9690 0.9690
2455.635320 0.9690 0.9690 0.9690 0.9690 0.9690
2459.901538 0.9690 0.9690 0.9690 0.9693 0.9698
2464.167757 0.9697 0.9692 0.9690 0.9690 0.9690
2468.433976 0.9690 0.9690 0.9690 0.9693 0.9698
2472.700195 0.9700 0.9700 0.9700 0.9700 0.9700
2476.966413 0.9700 0.9700 0.9700 0.9700 0.9700
2481.232632 0.9697 0.9692 0.9690 0.9690 0.9690
2485.498851 0.9690 0.9693 0.9698 0.9700 0.9700
2489.765070 0.9700 0.9700 0.9700 0.9700 0.9700
2494.031288 0.9700 0.9700 0.9700 0.9700 0.9700
2498.297507 0.9700 0.9700 0.9697 0.9692 0.9693
2502.563726 0.9698 0.9707 0.9717 0.9713 0.9703
2506.829945 0.9700 0.9700 0.9700 0.9700 0.9707
2511.096163 0.9717 0.9720 0.9720 0.9710 0.9695
2515.362382 0.9690 0.9690 0.9690 0.9690 0.9690
2519.628601 0.9690 0.9687 0.9682 0.9680 0.9680
2523.894820 0.9680 0.9680 0.9680 0.9680 0.9683
2528.161039 0.9689 0.9690 0.9690 0.9690 0.9690
2532.427257 0.9690 0.9690 0.9686 0.9681 0.9680
2536.693476 0.9680 0.9680 0.9680 0.9680 0.9680
2540.959695 0.9680 0.9680 0.9684 0.9689 0.9690
2545.225914 0.9690 0.9690 0.9690 0.9690 0.9690
2549.492132 0.9690 0.9690 0.9690 0.9690 0.9694
2553.758351 0.9699 0.9700 0.9700 0.9700 0.9700
2558.024570 0.9707 0.9717 0.9720 0.9720 0.9720
2562.290789 0.9720 0.9720 0.9720 0.9712 0.9702
2566.557007 0.9700 0.9700 0.9700 0.9700 0.9700
2570.823226 0.9700 0.9700 0.9700 0.9708 0.9718
2575.089445 0.9720 0.9720 0.9720 0.9720 0.9724
2579.355664 0.9729 0.9730 0.9730 0.9730 0.9730
2583.621882 0.9730 0.9730 0.9730 0.9730 0.9730
2587.888101 0.9730 0.9734 0.9739 0.9736 0.9731
2592.154320 0.9734 0.9739 0.9740 0.9740 0.9748
2596.420539 0.9758 0.9760 0.9760 0.9760 0.9760
2600.686758 0.9752 0.9742 0.9736 0.9731 0.9730
2604.952976 0.9730 0.9730 0.9730 0.9730 0.9730
2609.219195 0.9730 0.9730 0.9730 0.9730 0.9730
2613.485414 0.9730 0.9730 0.9730 0.9730 0.9730
2617.751633 0.9730 0.9730 0.9734 0.9739 0.9740
2622.017851 0.9740 0.9740 0.9740 0.9740 0.9740
2626.284070 0.9736 0.9731 0.9730 0.9730 0.9726
2630.550289 0.9721 0.9720 0.9720 0.9720 0.9720
2634.816508 0.9720 0.9720 0.9712 0.9702 0.9700
2639.082726 0.9700 0.9700 0.9700 0.9708 0.9718
2643.348945 0.9720 0.9720 0.9724 0.9729 0.9730
2647.615164 0.9730 0.9730 0.9730 0.9734 0.9739
2651.881383 0.9740 0.9740 0.9749 0.9759 0.9760
2656.147601 0.9760 0.9760 0.9760 0.9760 0.9760
2660.413820 0.9760 0.9760 0.9760 0.9760 0.9760
2664.680039 0.9760 0.9760 0.9760 0.9760 0.9760
2668.946258 0.9760 0.9760 0.9760 0.9760 0.9760
2673.212477 0.9760 0.9760 0.9760 0.9760 0.9760
2677.478695 0.9760 0.9760 0.9760 0.9760 0.9760
2681.744914 0.9760 0.9760 0.9760 0.9760 0.9760
2686.011133 0.9760 0.9760 0.9760 0.9760 0.9760
2690.277352 0.9760 0.9760 0.9760 0.9760 0.9760
2694.543570 0.9760 0.9760 0.9760 0.9760 0.9760
2698.809789 0.9760 0.9760 0.9760 0.9765 0.9770
2703.076008 0.9770 0.9770 0.9770 0.9770 0.9770
2707.342227 0.9770 0.9770 0.9770 0.9770 0.9770
2711.608445 0.9770 0.9770 0.9765 0.9760 0.9760
2715.874664 0.9760 0.9760 0.9760 0.9760 0.9760
2720.140883 0.9760 0.9760 0.9760 0.9760 0.9760
2724.407102 0.9760 0.9760 0.9760 0.9760 0.9760
2728.673320 0.9760 0.9760 0.9760 0.9760 0.9750
2732.939539 0.9740 0.9740 0.9740 0.9740 0.9740
2737.205758 0.9740 0.9740 0.9740 0.9740 0.9740
2741.471977 0.9740 0.9740 0.9740 0.9740 0.9740
2745.738195 0.9735 0.9730 0.9730 0.9730 0.9730
2750.004414 0.9730 0.9730 0.9730 0.9730 0.9730
2754.270633 0.9735 0.9740 0.9740 0.9740 0.9740
2758.536852 0.9740 0.9740 0.9740 0.9740 0.9740
2762.803071 0.9740 0.9740 0.9740 0.9740 0.9750
2767.069289 0.9760 0.9760 0.9760 0.9760 0.9760
2771.335508 0.9750 0.9740 0.9740 0.9740 0.9740
2775.601727 0.9740 0.9740 0.9740 0.9740 0.9740
2779.867946 0.9740 0.9740 0.9740 0.9740 0.9740
2784.134164 0.9740 0.9740 0.9741 0.9751 0.9760
2788.400383 0.9760 0.9760 0.9760 0.9759 0.9749
2792.666602 0.9740 0.9740 0.9740 0.9740 0.9740
2796.932821 0.9740 0.9740 0.9740 0.9740 0.9740
2801.199039 0.9740 0.9740 0.9741 0.9751 0.9760
2805.465258 0.9760 0.9760 0.9760 0.9760 0.9760
2809.731477 0.9760 0.9760 0.9760 0.9760 0.9759
2813.997696 0.9749 0.9740 0.9740 0.9740 0.9740
2818.263914 0.9740 0.9740 0.9740 0.9740 0.9740
2822.530133 0.9735 0.9730 0.9725 0.9720 0.9720
2826.796352 0.9719 0.9709 0.9700 0.9700 0.9700
2831.062571 0.9700 0.9700 0.9695 0.9690 0.9684
2835.328790 0.9680 0.9680 0.9679 0.9669 0.9659
2839.595008 0.9654 0.9649 0.9644 0.9640 0.9640
2843.861227 0.9639 0.9629 0.9619 0.9614 0.9610
2848.127446 0.9610 0.9610 0.9610 0.9611 0.9616
2852.393665 0.9620 0.9620 0.9620 0.9620 0.9620
2856.659883 0.9620 0.9620 0.9620 0.9619 0.9614
2860.926102 0.9607 0.9587 0.9569 0.9564 0.9559
2865.192321 0.9549 0.9540 0.9540 0.9539 0.9534
2869.458540 0.9528 0.9513 0.9499 0.9494 0.9490
2873.724758 0.9490 0.9490 0.9490 0.9491 0.9496
2877.990977 0.9500 0.9500 0.9502 0.9512 0.9520
2882.257196 0.9520 0.9520 0.9520 0.9520 0.9520
2886.523415 0.9520 0.9520 0.9520 0.9520 0.9520
2890.789633 0.9520 0.9518 0.9508 0.9499 0.9494
2895.055852 0.9490 0.9490 0.9490 0.9490 0.9490
2899.322071 0.9490 0.9489 0.9484 0.9477 0.9462
2903.588290 0.9449 0.9444 0.9438 0.9428 0.9419
2907.854509 0.9414 0.9405 0.9380 0.9357 0.9342
2912.120727 0.9327 0.9312 0.9294 0.9264 0.9236
2916.386946 0.9216 0.9198 0.9188 0.9178 0.9168
2920.653165 0.9155 0.9135 0.9120 0.9120 0.9115
2924.919384 0.9095 0.9076 0.9062 0.9046 0.9031
2929.185602 0.9015 0.8995 0.8974 0.8949 0.8926
2933.451821 0.8911 0.8899 0.8894 0.8891 0.8896
2937.718040 0.8904 0.8919 0.8935 0.8955 0.8980
2941.984259 0.9020 0.9056 0.9081 0.9103 0.9113
2946.250477 0.9121 0.9126 0.9130 0.9130 0.9129
2950.516696 0.9124 0.9117 0.9107 0.9090 0.9049
2954.782915 0.9012 0.8982 0.8956 0.8941 0.8924
2959.049134 0.8904 0.8883 0.8858 0.8830 0.8795
2963.315352 0.8764 0.8744 0.8724 0.8704 0.8689
2967.581571 0.8684 0.8672 0.8642 0.8609 0.8568
2971.847790 0.8531 0.8501 0.8469 0.8434 0.8399
2976.114009 0.8364 0.8337 0.8327 0.8308 0.8268
2980.380228 0.8229 0.8194 0.8164 0.8144 0.8124
2984.646446 0.8104 0.8088 0.8083 0.8080 0.8080
2988.912665 0.8082 0.8087 0.8095 0.8110 0.8123
2993.178884 0.8133 0.8145 0.8160 0.8183 0.8223
2997.445103 0.8261 0.8296 0.8335 0.8380 0.8435
3001.711321 0.8510 0.8583 0.8653 0.8713 0.8754
3005.977540 0.8801 0.8861 0.8910 0.8940 0.8977
3010.243759 0.9027 0.9077 0.9127 0.9177 0.9227
3014.509978 0.9270 0.9300 0.9322 0.9327 0.9332
3018.776196 0.9337 0.9345 0.9360 0.9377 0.9397
3023.042415 0.9416 0.9431 0.9444 0.9454 0.9460
3027.308634 0.9460 0.9466 0.9481 0.9497 0.9517
3031.574853 0.9536 0.9551 0.9562 0.9567 0.9570
3035.841071 0.9570 0.9572 0.9577 0.9580 0.9580
3040.107290 0.9584 0.9594 0.9602 0.9607 0.9610
3044.373509 0.9610 0.9612 0.9617 0.9620 0.9620
3048.639728 0.9620 0.9620 0.9624 0.9634 0.9642
3052.905947 0.9647 0.9650 0.9650 0.9650 0.9650
3057.172165 0.9650 0.9650 0.9652 0.9657 0.9660
3061.438384 0.9660 0.9660 0.9660 0.9660 0.9660
3065.704603 0.9664 0.9674 0.9680 0.9680 0.9680
3069.970822 0.9680 0.9680 0.9680 0.9682 0.9687
3074.237040 0.9690 0.9690 0.9690 0.9690 0.9690
3078.503259 0.9690 0.9690 0.9690 0.9692 0.9697
3082.769478 0.9700 0.9700 0.9700 0.9700 0.9700
3087.035697 0.9700 0.9700 0.9700 0.9700 0.9700
3091.301915 0.9700 0.9700 0.9700 0.9700 0.9700
3095.568134 0.9700 0.9700 0.9700 0.9700 0.9700
3099.834353 0.9700 0.9700 0.9700 0.9700 0.9700
3104.100572 0.9700 0.9700 0.9700 0.9700 0.9700
3108.366790 0.9700 0.9700 0.9700 0.9700 0.9698
3112.633009 0.9693 0.9690 0.9690 0.9690 0.9690
3116.899228 0.9690 0.9690 0.9690 0.9690 0.9690
3121.165447 0.9690 0.9690 0.9690 0.9690 0.9690
3125.431666 0.9690 0.9690 0.9693 0.9698 0.9700
3129.697884 0.9700 0.9700 0.9700 0.9700 0.9700
3133.964103 0.9700 0.9700 0.9700 0.9700 0.9700
3138.230322 0.9700 0.9700 0.9700 0.9700 0.9700
3142.496541 0.9705 0.9715 0.9720 0.9720 0.9715
3146.762759 0.9705 0.9700 0.9700 0.9700 0.9700
3151.028978 0.9700 0.9700 0.9700 0.9700 0.9700
3155.295197 0.9700 0.9705 0.9715 0.9715 0.9705
3159.561416 0.9700 0.9700 0.9700 0.9700 0.9700
3163.827634 0.9700 0.9700 0.9700 0.9700 0.9700
3168.093853 0.9700 0.9700 0.9700 0.9700 0.9700
3172.360072 0.9700 0.9700 0.9700 0.9700 0.9700
3176.626291 0.9700 0.9700 0.9700 0.9700 0.9700
3180.892509 0.9700 0.9700 0.9700 0.9700 0.9700
3185.158728 0.9700 0.9700 0.9697 0.9692 0.9690
3189.424947 0.9690 0.9690 0.9690 0.9690 0.9690
3193.691166 0.9690 0.9690 0.9690 0.9690 0.9693
3197.957385 0.9698 0.9694 0.9684 0.9680 0.9680
3202.223603 0.9680 0.9680 0.9683 0.9688 0.9687
3206.489822 0.9682 0.9680 0.9680 0.9680 0.9680
3210.756041 0.9674 0.9664 0.9660 0.9660 0.9660
3215.022260 0.9660 0.9660 0.9660 0.9666 0.9676
3219.288478 0.9680 0.9680 0.9680 0.9680 0.9674
3223.554697 0.9664 0.9660 0.9660 0.9660 0.9660
3227.820916 0.9660 0.9660 0.9660 0.9660 0.9660
3232.087135 0.9660 0.9657 0.9652 0.9650 0.9650
3236.353353 0.9650 0.9650 0.9650 0.9650 0.9650
3240.619572 0.9650 0.9653 0.9658 0.9660 0.9660
3244.885791 0.9660 0.9660 0.9660 0.9660 0.9660
3249.152010 0.9660 0.9657 0.9652 0.9650 0.9650
3253.418228 0.9650 0.9650 0.9650 0.9650 0.9650
3257.684447 0.9650 0.9650 0.9650 0.9650 0.9650
3261.950666 0.9650 0.9650 0.9650 0.9650 0.9650
3266.216885 0.9650 0.9650 0.9650 0.9650 0.9650
3270.483104 0.9650 0.9650 0.9650 0.9650 0.9653
3274.749322 0.9658 0.9660 0.9660 0.9660 0.9660
3279.015541 0.9660 0.9660 0.9667 0.9677 0.9680
3283.281760 0.9680 0.9680 0.9680 0.9680 0.9680
3287.547979 0.9680 0.9680 0.9680 0.9680 0.9673
3291.814197 0.9663 0.9660 0.9660 0.9660 0.9660
3296.080416 0.9660 0.9660 0.9656 0.9651 0.9650
3300.346635 0.9650 0.9650 0.9650 0.9650 0.9650
3304.612854 0.9650 0.9650 0.9646 0.9641 0.9640
3308.879072 0.9640 0.9640 0.9640 0.9640 0.9640
3313.145291 0.9640 0.9640 0.9640 0.9640 0.9640
3317.411510 0.9640 0.9640 0.9640 0.9632 0.9622
3321.677729 0.9620 0.9620 0.9628 0.9638 0.9640
3325.943947 0.9640 0.9640 0.9640 0.9640 0.9640
3330.210166 0.9640 0.9640 0.9632 0.9622 0.9620
3334.476385 0.9620 0.9620 0.9620 0.9628 0.9638
3338.742604 0.9640 0.9640 0.9640 0.9640 0.9640
3343.008823 0.9640 0.9640 0.9640 0.9640 0.9640
3347.275041 0.9640 0.9640 0.9640 0.9640 0.9632
3351.541260 0.9622 0.9620 0.9620 0.9620 0.9620
3355.807479 0.9620 0.9620 0.9620 0.9620 0.9628
3360.073698 0.9638 0.9632 0.9622 0.9620 0.9620
3364.339916 0.9620 0.9620 0.9620 0.9620 0.9620
3368.606135 0.9620 0.9620 0.9620 0.9620 0.9620
3372.872354 0.9620 0.9620 0.9616 0.9611 0.9610
3377.138573 0.9610 0.9610 0.9610 0.9606 0.9601
3381.404791 0.9600 0.9600 0.9604 0.9609 0.9610
3385.671010 0.9610 0.9610 0.9610 0.9610 0.9610
3389.937229 0.9606 0.9601 0.9600 0.9600 0.9600
3394.203448 0.9600 0.9600 0.9600 0.9600 0.9600
3398.469666 0.9600 0.9600 0.9591 0.9581 0.9580
3402.735885 0.9580 0.9576 0.9571 0.9570 0.9570
3407.002104 0.9570 0.9570 0.9574 0.9579 0.9580
3411.268323 0.9580 0.9580 0.9580 0.9580 0.9580
3415.534542 0.9580 0.9580 0.9580 0.9580 0.9580
3419.800760 0.9580 0.9580 0.9580 0.9576 0.9571
3424.066979 0.9570 0.9570 0.9570 0.9570 0.9570
3428.333198 0.9570 0.9570 0.9570 0.9570 0.9570
3432.599417 0.9565 0.9560 0.9560 0.9560 0.9560
3436.865635 0.9560 0.9560 0.9560 0.9551 0.9541
3441.131854 0.9540 0.9540 0.9549 0.9559 0.9560
3445.398073 0.9560 0.9551 0.9541 0.9540 0.9540
3449.664292 0.9540 0.9540 0.9540 0.9540 0.9540
3453.930510 0.9540 0.9540 0.9540 0.9540 0.9540
3458.196729 0.9540 0.9540 0.9540 0.9540 0.9540
3462.462948 0.9540 0.9540 0.9540 0.9540 0.9540
3466.729167 0.9540 0.9540 0.9540 0.9540 0.9540
3470.995385 0.9540 0.9540 0.9540 0.9540 0.9540
3475.261604 0.9535 0.9530 0.9530 0.9530 0.9530
3479.527823 0.9530 0.9530 0.9530 0.9530 0.9530
3483.794042 0.9530 0.9530 0.9530 0.9530 0.9530
3488.060261 0.9530 0.9530 0.9530 0.9530 0.9530
3492.326479 0.9530 0.9530 0.9525 0.9520 0.9520
3496.592698 0.9520 0.9520 0.9520 0.9520 0.9520
3500.858917 0.9510 0.9500 0.9500 0.9500 0.9500
3505.125136 0.9500 0.9500 0.9500 0.9495 0.9490
3509.391354 0.9490 0.9490 0.9490 0.9490 0.9485
3513.657573 0.9480 0.9480 0.9480 0.9480 0.9480
3517.923792 0.9480 0.9480 0.9480 0.9480 0.9470
3522.190011 0.9460 0.9460 0.9460 0.9455 0.9450
3526.456229 0.9450 0.9450 0.9450 0.9450 0.9455
3530.722448 0.9460 0.9460 0.9460 0.9455 0.9450
3534.988667 0.9450 0.9450 0.9450 0.9450 0.9450
3539.254886 0.9450 0.9450 0.9450 0.9445 0.9440
3543.521104 0.9440 0.9440 0.9440 0.9440 0.9440
3547.787323 0.9439 0.9429 0.9420 0.9420 0.9420
3552.053542 0.9420 0.9421 0.9431 0.9440 0.9440
3556.319761 0.9440 0.9440 0.9440 0.9445 0.9450
3560.585980 0.9450 0.9450 0.9450 0.9450 0.9450
3564.852198 0.9450 0.9445 0.9440 0.9440 0.9440
3569.118417 0.9440 0.9440 0.9440 0.9439 0.9429
3573.384636 0.9420 0.9420 0.9420 0.9420 0.9420
3577.650855 0.9420 0.9421 0.9431 0.9440 0.9440
3581.917073 0.9439 0.9429 0.9420 0.9420 0.9420
3586.183292 0.9420 0.9420 0.9420 0.9420 0.9420
3590.449511 0.9420 0.9420 0.9420 0.9420 0.9420
3594.715730 0.9420 0.9420 0.9420 0.9419 0.9414
3598.981948 0.9410 0.9410 0.9408 0.9393 0.9380
3603.248167 0.9380 0.9379 0.9374 0.9370 0.9370
3607.514386 0.9369 0.9364 0.9360 0.9360 0.9358
3611.780605 0.9343 0.9330 0.9330 0.9329 0.9324
3616.046823 0.9320 0.9320 0.9319 0.9308 0.9300
3620.313042 0.9300 0.9300 0.9300 0.9300 0.9300
3624.579261 0.9300 0.9300 0.9300 0.9300 0.9300
3628.845480 0.9300 0.9300 0.9300 0.9300 0.9300
3633.111698 0.9300 0.9300 0.9300 0.9300 0.9302
3637.377917 0.9312 0.9320 0.9320 0.9321 0.9326
3641.644136 0.9330 0.9330 0.9331 0.9336 0.9342
3645.910355 0.9352 0.9361 0.9366 0.9371 0.9376
3650.176574 0.9383 0.9398 0.9411 0.9416 0.9422
3654.442792 0.9432 0.9440 0.9440 0.9440 0.9440
3658.709011 0.9441 0.9446 0.9450 0.9450 0.9451
3662.975230 0.9456 0.9462 0.9472 0.9480 0.9480
3667.241449 0.9481 0.9486 0.9491 0.9496 0.9502
3671.507667 0.9512 0.9521 0.9526 0.9530 0.9530
3675.773886 0.9531 0.9536 0.9540 0.9540 0.9542
3680.040105 0.9552 0.9561 0.9566 0.9570 0.9570
3684.306324 0.9570 0.9570 0.9570 0.9570 0.9570
3688.572542 0.9570 0.9570 0.9570 0.9571 0.9576
3692.838761 0.9580 0.9580 0.9580 0.9580 0.9580
3697.104980 0.9580 0.9580 0.9580 0.9580 0.9580
3701.371199 0.9580 0.9580 0.9579 0.9574 0.9570
3705.637417 0.9570 0.9570 0.9570 0.9570 0.9570
3709.903636 0.9571 0.9576 0.9580 0.9580 0.9579
3714.169855 0.9574 0.9570 0.9570 0.9570 0.9570
3718.436074 0.9571 0.9576 0.9580 0.9580 0.9580
3722.702293 0.9580 0.9580 0.9580 0.9580 0.9580
3726.968511 0.9580 0.9580 0.9580 0.9580 0.9580
3731.234730 0.9580 0.9580 0.9580 0.9580 0.9580
3735.500949 0.9580 0.9580 0.9580 0.9580 0.9580
3739.767168 0.9580 0.9580 0.9580 0.9580 0.9580
3744.033386 0.9580 0.9580 0.9580 0.9580 0.9580
3748.299605 0.9580 0.9580 0.9580 0.9580 0.9580
3752.565824 0.9578 0.9573 0.9570 0.9570 0.9570
3756.832043 0.9570 0.9570 0.9570 0.9570 0.9570
3761.098261 0.9570 0.9570 0.9570 0.9570 0.9570
3765.364480 0.9570 0.9570 0.9570 0.9572 0.9577
3769.630699 0.9580 0.9580 0.9580 0.9580 0.9580
3773.896918 0.9580 0.9580 0.9580 0.9580 0.9580
3778.163136 0.9580 0.9580 0.9578 0.9573 0.9568
3782.429355 0.9563 0.9560 0.9560 0.9560 0.9560
3786.695574 0.9560 0.9560 0.9560 0.9560 0.9560
3790.961793 0.9560 0.9560 0.9560 0.9562 0.9567
3795.228012 0.9570 0.9570
##END=
