##TITLE=CHLORO DIBROMO FLUORO METHANE
##JCAMP-DX=4.24
##DATA TYPE=INFRARED SPECTRUM
##CLASS=COBLENTZ
##ORIGIN=DOW CHEMICAL COMPANY
##OWNER=COBLENTZ SOCIETY
Collection (C) 2018 copyright by the U.S. Secretary of Commerce
on behalf of the United States of America. All rights reserved.
##DATE=Not specified, most likely prior to 1970
##NAMES=dibromo(chloro)fluoromethane
##CAS REGISTRY NO=353-55-9
##MOLFORM=C Cl Br2 F
##SOURCE REFERENCE=COBLENTZ NO. 1920
##$NIST SOURCE=COBLENTZ
##$NIST IMAGE=cob1920
##SPECTROMETER/DATA SYSTEM=Not specified, most likely a prism, grating, or hybrid spectrometer.
##STATE=SOLUTION (10% CCl4 FOR 5000-1330, 10% CS2 FOR 1330-625 CM^-^1)
##PATH LENGTH=0.0122 CM, 0.0115 CM
$$SPECTRAL CONTAMINATION DUE TO CS2 AROUND 850, AND CCl4 AROUND 1550 CM^-^1
##SAMPLING PROCEDURE=TRANSMISSION
##RESOLUTION=4
##DATA PROCESSING=DIGITIZED BY NIST FROM HARD COPY
##XUNITS=MICROMETERS
##YUNITS=TRANSMITTANCE
##XFACTOR=1.000000
##YFACTOR=1
##DELTAX=000.006836
##FIRSTX=2.055
##LASTX=15.932
##FIRSTY=0.894
##MAXX=15.932
##MINX=2.055
##MAXY=0.895
##MINY=0
##NPOINTS=2031
##XYDATA=(X++(Y..Y))
2.055000 0.8940 0.8940 0.8940 0.8950 0.8950
2.089197 0.8940 0.8920 0.8920 0.8900 0.8900
2.123000 0.8900 0.8900 0.8900 0.8900 0.8900
2.157197 0.8900 0.8890 0.8870 0.8870 0.8870
2.191000 0.8890 0.8890 0.8890 0.8890 0.8900
2.225197 0.8900 0.8900 0.8900 0.8890 0.8890
2.260000 0.8890 0.8870 0.8870 0.8870 0.8850
2.294197 0.8850 0.8850 0.8850 0.8870 0.8870
2.328000 0.8870 0.8870 0.8870 0.8890 0.8890
2.362197 0.8890 0.8890 0.8890 0.8890 0.8890
2.396000 0.8890 0.8890 0.8890 0.8890 0.8890
2.430197 0.8890 0.8900 0.8900 0.8900 0.8920
2.465000 0.8920 0.8920 0.8920 0.8940 0.8940
2.499197 0.8940 0.8940 0.8940 0.8950 0.8950
2.533000 0.8950 0.8950 0.8950 0.8950 0.8950
2.567197 0.8950 0.8950 0.8950 0.8950 0.8940
2.602000 0.8940 0.8940 0.8940 0.8940 0.8940
2.636197 0.8940 0.8940 0.8920 0.8920 0.8920
2.670000 0.8900 0.8900 0.8900 0.8890 0.8890
2.704197 0.8900 0.8900 0.8900 0.8890 0.8890
2.738000 0.8890 0.8890 0.8870 0.8870 0.8870
2.772197 0.8850 0.8850 0.8830 0.8830 0.8830
2.807000 0.8820 0.8820 0.8800 0.8780 0.8780
2.841197 0.8770 0.8770 0.8770 0.8750 0.8750
2.875000 0.8750 0.8750 0.8750 0.8750 0.8750
2.909197 0.8750 0.8750 0.8750 0.8750 0.8770
2.943000 0.8770 0.8780 0.8780 0.8780 0.8800
2.977197 0.8800 0.8780 0.8770 0.8770 0.8770
3.012000 0.8770 0.8770 0.8770 0.8770 0.8770
3.046197 0.8750 0.8750 0.8750 0.8750 0.8750
3.080000 0.8750 0.8750 0.8750 0.8770 0.8770
3.114197 0.8780 0.8780 0.8780 0.8780 0.8820
3.148000 0.8820 0.8820 0.8820 0.8820 0.8820
3.182197 0.8820 0.8820 0.8820 0.8820 0.8830
3.217000 0.8830 0.8850 0.8850 0.8870 0.8890
3.251197 0.8890 0.8900 0.8900 0.8890 0.8870
3.285000 0.8830 0.8830 0.8830 0.8830 0.8830
3.319197 0.8830 0.8830 0.8830 0.8830 0.8830
3.354000 0.8830 0.8830 0.8830 0.8830 0.8870
3.388197 0.8870 0.8870 0.8890 0.8890 0.8890
3.422000 0.8890 0.8900 0.8900 0.8900 0.8900
3.456197 0.8900 0.8900 0.8900 0.8900 0.8900
3.490000 0.8900 0.8900 0.8900 0.8890 0.8870
3.524197 0.8870 0.8870 0.8870 0.8870 0.8890
3.559000 0.8890 0.8900 0.8900 0.8900 0.8900
3.593197 0.8900 0.8900 0.8900 0.8900 0.8900
3.627000 0.8900 0.8900 0.8900 0.8900 0.8900
3.661197 0.8900 0.8900 0.8900 0.8900 0.8900
3.695000 0.8890 0.8890 0.8890 0.8890 0.8890
3.729197 0.8890 0.8900 0.8900 0.8900 0.8900
3.764000 0.8900 0.8900 0.8900 0.8900 0.8900
3.798197 0.8900 0.8900 0.8900 0.8900 0.8900
3.832000 0.8900 0.8900 0.8900 0.8900 0.8900
3.866197 0.8900 0.8890 0.8890 0.8890 0.8890
3.900000 0.8890 0.8890 0.8890 0.8890 0.8890
3.934197 0.8890 0.8890 0.8890 0.8890 0.8900
3.969000 0.8900 0.8900 0.8900 0.8900 0.8900
4.003197 0.8900 0.8900 0.8920 0.8920 0.8900
4.037000 0.8900 0.8900 0.8900 0.8900 0.8900
4.071197 0.8900 0.8900 0.8900 0.8900 0.8890
4.105000 0.8890 0.8890 0.8890 0.8900 0.8920
4.139197 0.8920 0.8920 0.8920 0.8900 0.8900
4.174000 0.8900 0.8900 0.8920 0.8920 0.8920
4.208197 0.8900 0.8900 0.8900 0.8890 0.8870
4.242000 0.8850 0.8830 0.8820 0.8800 0.8780
4.276197 0.8750 0.8720 0.8720 0.8700 0.8700
4.311000 0.8680 0.8680 0.8680 0.8680 0.8700
4.345197 0.8700 0.8700 0.8700 0.8700 0.8700
4.379000 0.8700 0.8750 0.8800 0.8820 0.8820
4.413197 0.8830 0.8830 0.8850 0.8850 0.8870
4.447000 0.8870 0.8870 0.8890 0.8890 0.8920
4.481197 0.8920 0.8920 0.8920 0.8940 0.8940
4.516000 0.8940 0.8940 0.8940 0.8920 0.8920
4.550197 0.8900 0.8900 0.8900 0.8900 0.8890
4.584000 0.8890 0.8890 0.8890 0.8890 0.8920
4.618197 0.8920 0.8920 0.8920 0.8920 0.8920
4.652000 0.8920 0.8920 0.8900 0.8890 0.8830
4.686197 0.8830 0.8820 0.8800 0.8750 0.8730
4.721000 0.8660 0.8600 0.8580 0.8540 0.8530
4.755197 0.8530 0.8530 0.8530 0.8540 0.8610
4.789000 0.8630 0.8700 0.8770 0.8770 0.8820
4.823197 0.8830 0.8830 0.8850 0.8900 0.8900
4.857000 0.8920 0.8920 0.8920 0.8920 0.8920
4.891197 0.8900 0.8900 0.8900 0.8890 0.8890
4.926000 0.8890 0.8890 0.8890 0.8890 0.8890
4.960197 0.8890 0.8900 0.8900 0.8900 0.8900
4.994000 0.8900 0.8900 0.8900 0.8900 0.8900
5.028197 0.8900 0.8900 0.8900 0.8920 0.8940
5.063000 0.8950 0.8950 0.8940 0.8940 0.8940
5.097197 0.8920 0.8920 0.8900 0.8900 0.8900
5.131000 0.8900 0.8900 0.8920 0.8920 0.8940
5.165197 0.8940 0.8940 0.8940 0.8940 0.8940
5.199000 0.8940 0.8940 0.8940 0.8940 0.8940
5.233197 0.8940 0.8920 0.8920 0.8920 0.8920
5.268000 0.8920 0.8920 0.8900 0.8900 0.8900
5.302197 0.8900 0.8900 0.8900 0.8920 0.8900
5.336000 0.8900 0.8900 0.8900 0.8920 0.8920
5.370197 0.8920 0.8920 0.8920 0.8920 0.8920
5.404000 0.8920 0.8920 0.8920 0.8920 0.8900
5.438197 0.8890 0.8890 0.8890 0.8890 0.8890
5.473000 0.8890 0.8890 0.8890 0.8890 0.8900
5.507197 0.8900 0.8920 0.8920 0.8920 0.8920
5.541000 0.8920 0.8920 0.8900 0.8900 0.8900
5.575197 0.8900 0.8900 0.8890 0.8890 0.8890
5.609000 0.8890 0.8890 0.8900 0.8900 0.8900
5.643197 0.8900 0.8900 0.8900 0.8900 0.8900
5.678000 0.8900 0.8900 0.8900 0.8900 0.8900
5.712197 0.8900 0.8900 0.8900 0.8900 0.8900
5.746000 0.8900 0.8870 0.8850 0.8820 0.8820
5.780197 0.8780 0.8770 0.8730 0.8720 0.8650
5.814000 0.8630 0.8630 0.8630 0.8630 0.8630
5.848197 0.8630 0.8660 0.8680 0.8730 0.8750
5.883000 0.8780 0.8800 0.8820 0.8820 0.8830
5.917197 0.8830 0.8830 0.8830 0.8830 0.8830
5.951000 0.8850 0.8850 0.8850 0.8870 0.8870
5.985197 0.8870 0.8870 0.8870 0.8850 0.8850
6.020000 0.8830 0.8830 0.8820 0.8800 0.8800
6.054197 0.8770 0.8730 0.8720 0.8680 0.8660
6.088000 0.8650 0.8630 0.8630 0.8630 0.8610
6.122197 0.8610 0.8610 0.8580 0.8540 0.8510
6.156000 0.8480 0.8370 0.8250 0.8190 0.8150
6.190197 0.8080 0.8000 0.7900 0.7620 0.7590
6.225000 0.7420 0.7320 0.7210 0.6840 0.6790
6.259197 0.6720 0.6650 0.6510 0.6410 0.6340
6.293000 0.6290 0.6260 0.6190 0.6140 0.6100
6.327197 0.6050 0.6020 0.5970 0.5870 0.5760
6.361000 0.5680 0.5580 0.5510 0.5420 0.5350
6.395197 0.5250 0.5030 0.4860 0.4770 0.4670
6.430000 0.4620 0.4620 0.4620 0.4620 0.4640
6.464197 0.4720 0.4860 0.4930 0.5170 0.5340
6.498000 0.5510 0.5660 0.5800 0.5880 0.5970
6.532197 0.6040 0.6120 0.6170 0.6260 0.6310
6.566000 0.6430 0.6510 0.6600 0.6790 0.6860
6.600197 0.6940 0.7030 0.7110 0.7180 0.7230
6.635000 0.7450 0.7520 0.7570 0.7620 0.7860
6.669197 0.7960 0.8020 0.8020 0.8050 0.8130
6.703000 0.8200 0.8240 0.8290 0.8320 0.8360
6.737197 0.8390 0.8430 0.8460 0.8480 0.8510
6.771000 0.8530 0.8580 0.8610 0.8650 0.8660
6.805197 0.8660 0.8680 0.8700 0.8720 0.8720
6.840000 0.8720 0.8720 0.8730 0.8730 0.8770
6.874197 0.8780 0.8800 0.8800 0.8800 0.8800
6.908000 0.8800 0.8800 0.8800 0.8780 0.8770
6.942197 0.8750 0.8730 0.8720 0.8720 0.8720
6.977000 0.8720 0.8680 0.8680 0.8680 0.8680
7.011197 0.8680 0.8680 0.8680 0.8680 0.8700
7.045000 0.8700 0.8700 0.8680 0.8680 0.8700
7.079197 0.8700 0.8700 0.8700 0.8720 0.8720
7.113000 0.8730 0.8730 0.8750 0.8750 0.8750
7.147197 0.8750 0.8750 0.8750 0.8770 0.8770
7.182000 0.8770 0.8780 0.8780 0.8800 0.8820
7.216197 0.8830 0.8830 0.8830 0.8830 0.8830
7.250000 0.8830 0.8830 0.8830 0.8830 0.8830
7.284197 0.8830 0.8830 0.8830 0.8830 0.8830
7.318000 0.8830 0.8830 0.8830 0.8830 0.8850
7.352197 0.8850 0.8870 0.8890 0.8890 0.8890
7.387000 0.8890 0.8890 0.8890 0.8890 0.8890
7.421197 0.8890 0.8890 0.8870 0.8870 0.8870
7.455000 0.8850 0.8830 0.8830 0.8820 0.8820
7.489197 0.8800 0.8780 0.8770 0.8770 0.8750
7.523000 0.8730 0.8730 0.8720 0.8720 0.8700
7.557197 0.8700 0.8680 0.8680 0.8680 0.8700
7.592000 0.8700 0.8720 0.8730 0.8730 0.8730
7.626197 0.8730 0.8730 0.8730 0.8730 0.8720
7.660000 0.8680 0.8660 0.8650 0.8610 0.8600
7.694197 0.8560 0.8540 0.8540 0.8540 0.8540
7.729000 0.8540 0.8530 0.8530 0.8530 0.8530
7.763197 0.8510 0.8510 0.8490 0.8480 0.8460
7.797000 0.8440 0.8430 0.8430 0.8430 0.8430
7.831197 0.8430 0.8440 0.8440 0.8440 0.8440
7.865000 0.8440 0.8440 0.8440 0.8430 0.8410
7.899197 0.8390 0.8370 0.8360 0.8340 0.8340
7.934000 0.8340 0.8320 0.8320 0.8310 0.8310
7.968197 0.8310 0.8270 0.8270 0.8250 0.8250
8.002000 0.8250 0.8250 0.8250 0.8250 0.8250
8.036197 0.8250 0.8250 0.8250 0.8250 0.8250
8.070000 0.8250 0.8250 0.8250 0.8240 0.8240
8.104197 0.8240 0.8240 0.8220 0.8200 0.8200
8.139000 0.8190 0.8170 0.8170 0.8130 0.8120
8.173197 0.8120 0.8070 0.8050 0.8020 0.8000
8.207000 0.7960 0.7930 0.7910 0.7880 0.7860
8.241197 0.7830 0.7810 0.7790 0.7780 0.7730
8.275000 0.7710 0.7710 0.7710 0.7710 0.7730
8.309197 0.7730 0.7710 0.7710 0.7690 0.7670
8.344000 0.7640 0.7620 0.7590 0.7570 0.7540
8.378197 0.7540 0.7520 0.7520 0.7520 0.7540
8.412000 0.7550 0.7590 0.7610 0.7640 0.7660
8.446197 0.7670 0.7690 0.7690 0.7690 0.7690
8.480000 0.7670 0.7640 0.7620 0.7610 0.7520
8.514197 0.7470 0.7420 0.7330 0.7300 0.7260
8.549000 0.7210 0.7200 0.7180 0.7180 0.7180
8.583197 0.7200 0.7210 0.7260 0.7300 0.7330
8.617000 0.7330 0.7350 0.7370 0.7380 0.7400
8.651197 0.7400 0.7420 0.7420 0.7440 0.7450
8.686000 0.7450 0.7470 0.7470 0.7490 0.7490
8.720197 0.7490 0.7490 0.7490 0.7490 0.7490
8.754000 0.7490 0.7500 0.7500 0.7500 0.7500
8.788197 0.7500 0.7500 0.7500 0.7520 0.7520
8.822000 0.7520 0.7520 0.7520 0.7540 0.7540
8.856197 0.7540 0.7540 0.7540 0.7540 0.7540
8.891000 0.7540 0.7540 0.7540 0.7540 0.7540
8.925197 0.7540 0.7540 0.7540 0.7540 0.7520
8.959000 0.7520 0.7520 0.7500 0.7500 0.7520
8.993197 0.7500 0.7500 0.7500 0.7500 0.7490
9.027000 0.7490 0.7470 0.7440 0.7380 0.7350
9.061197 0.7350 0.7320 0.7320 0.7230 0.7210
9.096000 0.7180 0.7160 0.7150 0.7150 0.7150
9.130197 0.7150 0.7130 0.7130 0.7110 0.7110
9.164000 0.7110 0.7110 0.7110 0.7090 0.7040
9.198197 0.7010 0.6940 0.6870 0.6800 0.6740
9.232000 0.6670 0.6630 0.6580 0.6530 0.6450
9.266197 0.6340 0.6170 0.6090 0.6000 0.5780
9.301000 0.5630 0.5520 0.5180 0.5010 0.4740
9.335197 0.4350 0.4010 0.3720 0.3480 0.3310
9.369000 0.3120 0.2520 0.2440 0.1820 0.1500
9.403197 0.1100 0.0800 0.0440 0.0420 0.0350
9.438000 0.0320 0.0290 0.0250 0.0230 0.0230
9.472197 0.0290 0.0320 0.0370 0.0490 0.0730
9.506000 0.0850 0.0930 0.1140 0.1310 0.1920
9.540197 0.2280 0.2570 0.2950 0.3240 0.3720
9.574000 0.3920 0.4160 0.4410 0.4720 0.5080
9.608197 0.5230 0.5350 0.5440 0.5510 0.5590
9.643000 0.5710 0.5870 0.5970 0.6040 0.6100
9.677197 0.6170 0.6270 0.6380 0.6480 0.6560
9.711000 0.6630 0.6840 0.6920 0.6970 0.7010
9.745197 0.7040 0.7110 0.7150 0.7280 0.7330
9.779000 0.7380 0.7420 0.7450 0.7470 0.7490
9.813197 0.7500 0.7520 0.7520 0.7520 0.7520
9.848000 0.7520 0.7540 0.7550 0.7550 0.7570
9.882197 0.7570 0.7570 0.7590 0.7590 0.7590
9.916000 0.7610 0.7620 0.7640 0.7660 0.7660
9.950197 0.7660 0.7640 0.7640 0.7640 0.7640
9.984000 0.7640 0.7660 0.7660 0.7670 0.7690
10.018197 0.7730 0.7740 0.7760 0.7790 0.7810
10.053000 0.7840 0.7880 0.7900 0.7930 0.7950
10.087197 0.8000 0.8020 0.8030 0.8030 0.8050
10.121000 0.8050 0.8050 0.8050 0.8050 0.8050
10.155197 0.8050 0.8050 0.8070 0.8070 0.8070
10.189000 0.8080 0.8080 0.8080 0.8080 0.8100
10.223197 0.8100 0.8100 0.8100 0.8100 0.8120
10.258000 0.8120 0.8120 0.8120 0.8120 0.8120
10.292197 0.8120 0.8130 0.8130 0.8130 0.8130
10.326000 0.8130 0.8130 0.8130 0.8130 0.8130
10.360197 0.8130 0.8130 0.8130 0.8130 0.8130
10.395000 0.8130 0.8130 0.8130 0.8130 0.8130
10.429197 0.8130 0.8130 0.8130 0.8130 0.8120
10.463000 0.8120 0.8120 0.8120 0.8120 0.8100
10.497197 0.8100 0.8100 0.8100 0.8100 0.8100
10.531000 0.8100 0.8100 0.8100 0.8100 0.8100
10.565197 0.8100 0.8100 0.8100 0.8100 0.8100
10.600000 0.8100 0.8100 0.8100 0.8120 0.8120
10.634197 0.8120 0.8120 0.8120 0.8130 0.8130
10.668000 0.8130 0.8150 0.8150 0.8150 0.8150
10.702197 0.8150 0.8150 0.8150 0.8150 0.8150
10.736000 0.8150 0.8150 0.8150 0.8150 0.8150
10.770197 0.8150 0.8150 0.8150 0.8150 0.8150
10.805000 0.8170 0.8170 0.8170 0.8190 0.8190
10.839197 0.8190 0.8190 0.8220 0.8220 0.8270
10.873000 0.8310 0.8310 0.8310 0.8310 0.8290
10.907197 0.8290 0.8290 0.8290 0.8290 0.8310
10.941000 0.8310 0.8310 0.8310 0.8310 0.8310
10.975197 0.8310 0.8310 0.8310 0.8310 0.8310
11.010000 0.8310 0.8320 0.8320 0.8320 0.8320
11.044197 0.8320 0.8320 0.8320 0.8320 0.8310
11.078000 0.8310 0.8310 0.8310 0.8310 0.8310
11.112197 0.8290 0.8270 0.8270 0.8250 0.8240
11.146000 0.8220 0.8200 0.8200 0.8200 0.8170
11.180197 0.8130 0.8130 0.8120 0.8070 0.8050
11.215000 0.8030 0.8020 0.8020 0.8000 0.8000
11.249197 0.7980 0.7980 0.7960 0.7960 0.7930
11.283000 0.7930 0.7900 0.7880 0.7840 0.7830
11.317197 0.7810 0.7780 0.7740 0.7710 0.7710
11.352000 0.7690 0.7640 0.7620 0.7610 0.7610
11.386197 0.7590 0.7590 0.7570 0.7540 0.7500
11.420000 0.7500 0.7470 0.7450 0.7440 0.7420
11.454197 0.7370 0.7350 0.7330 0.7320 0.7320
11.488000 0.7300 0.7280 0.7230 0.7200 0.7160
11.522197 0.7150 0.7110 0.7110 0.7080 0.7040
11.557000 0.7030 0.7030 0.6990 0.6960 0.6960
11.591197 0.6920 0.6920 0.6910 0.6890 0.6870
11.625000 0.6870 0.6860 0.6860 0.6840 0.6840
11.659197 0.6820 0.6820 0.6800 0.6800 0.6800
11.693000 0.6800 0.6800 0.6800 0.6800 0.6820
11.727197 0.6820 0.6840 0.6860 0.6890 0.6910
11.762000 0.6920 0.6960 0.7030 0.7080 0.7130
11.796197 0.7160 0.7210 0.7250 0.7300 0.7330
11.830000 0.7380 0.7420 0.7450 0.7490 0.7500
11.864197 0.7520 0.7540 0.7550 0.7550 0.7570
11.898000 0.7590 0.7610 0.7610 0.7620 0.7620
11.932197 0.7620 0.7620 0.7620 0.7620 0.7620
11.967000 0.7620 0.7620 0.7620 0.7620 0.7620
12.001197 0.7620 0.7620 0.7610 0.7590 0.7570
12.035000 0.7550 0.7500 0.7450 0.7400 0.7350
12.069197 0.7300 0.7250 0.7200 0.7130 0.7060
12.104000 0.6990 0.6920 0.6840 0.6740 0.6680
12.138197 0.6630 0.6530 0.6410 0.6270 0.6120
12.172000 0.5950 0.5760 0.5560 0.5150 0.4760
12.206197 0.4410 0.4070 0.3770 0.3480 0.3340
12.240000 0.3190 0.2880 0.2570 0.2250 0.1910
12.274197 0.1510 0.1310 0.1140 0.0850 0.0710
12.309000 0.0610 0.0510 0.0470 0.0470 0.0460
12.343197 0.0460 0.0460 0.0470 0.0520 0.0630
12.377000 0.0760 0.0900 0.1040 0.1190 0.1340
12.411197 0.1510 0.1680 0.1860 0.2010 0.2180
12.445000 0.2320 0.2450 0.2550 0.2660 0.2710
12.479197 0.2730 0.2730 0.2730 0.2640 0.2570
12.514000 0.2470 0.2320 0.2090 0.1820 0.1560
12.548197 0.1330 0.1090 0.0900 0.0710 0.0580
12.582000 0.0460 0.0370 0.0300 0.0250 0.0180
12.616197 0.0170 0.0150 0.0150 0.0150 0.0150
12.650000 0.0170 0.0170 0.0180 0.0180 0.0230
12.684197 0.0270 0.0340 0.0400 0.0470 0.0540
12.719000 0.0630 0.0710 0.0810 0.0930 0.1050
12.753197 0.1190 0.1330 0.1410 0.1530 0.1670
12.787000 0.1790 0.1920 0.2040 0.2110 0.2230
12.821197 0.2370 0.2380 0.2420 0.2470 0.2500
12.855000 0.2500 0.2500 0.2490 0.2470 0.2440
12.889197 0.2420 0.2400 0.2330 0.2300 0.2280
12.924000 0.2280 0.2260 0.2260 0.2280 0.2350
12.958197 0.2370 0.2470 0.2550 0.2760 0.2900
12.992000 0.2900 0.3000 0.3030 0.3220 0.3650
13.026197 0.3800 0.3850 0.3990 0.4060 0.4160
13.061000 0.4260 0.4300 0.4310 0.4350 0.4360
13.095197 0.4360 0.4380 0.4380 0.4380 0.4380
13.129000 0.4380 0.4380 0.4380 0.4360 0.4360
13.163197 0.4350 0.4330 0.4310 0.4310 0.4300
13.197000 0.4260 0.4240 0.4230 0.4190 0.4180
13.231197 0.4160 0.4120 0.4020 0.3940 0.3850
13.266000 0.3780 0.3700 0.3600 0.3480 0.3390
13.300197 0.3310 0.3070 0.2910 0.2710 0.2570
13.334000 0.2370 0.2260 0.1970 0.1800 0.1620
13.368197 0.1450 0.1270 0.1100 0.0930 0.0780
13.402000 0.0640 0.0510 0.0390 0.0290 0.0180
13.436197 0.0110 0.0050 0.0010 0.0010 0.0000
13.471000 0.0000 0.0000 0.0000 0.0000 0.0000
13.505197 0.0000 0.0000 0.0000 0.0000 0.0000
13.539000 0.0000 0.0000 0.0000 0.0000 0.0000
13.573197 0.0100 0.0170 0.0250 0.0370 0.0510
13.607000 0.0640 0.0810 0.1000 0.1190 0.1410
13.641197 0.1630 0.1870 0.2110 0.2380 0.2640
13.676000 0.2810 0.2980 0.3190 0.3650 0.3730
13.710197 0.4090 0.4240 0.4380 0.4600 0.4670
13.744000 0.4820 0.4940 0.5010 0.5060 0.5170
13.778197 0.5290 0.5300 0.5370 0.5370 0.5420
13.813000 0.5490 0.5510 0.5540 0.5540 0.5560
13.847197 0.5560 0.5580 0.5580 0.5590 0.5590
13.881000 0.5610 0.5630 0.5640 0.5660 0.5680
13.915197 0.5680 0.5680 0.5690 0.5710 0.5730
13.949000 0.5760 0.5810 0.5870 0.5900 0.5950
13.983197 0.5980 0.6050 0.6100 0.6160 0.6220
14.018000 0.6270 0.6330 0.6360 0.6360 0.6390
14.052197 0.6430 0.6460 0.6510 0.6510 0.6530
14.086000 0.6580 0.6630 0.6650 0.6650 0.6680
14.120197 0.6680 0.6680 0.6680 0.6680 0.6680
14.154000 0.6680 0.6670 0.6670 0.6670 0.6670
14.188197 0.6670 0.6650 0.6630 0.6600 0.6580
14.223000 0.6560 0.6550 0.6550 0.6530 0.6510
14.257197 0.6500 0.6480 0.6480 0.6460 0.6450
14.291000 0.6450 0.6450 0.6450 0.6460 0.6460
14.325197 0.6460 0.6460 0.6480 0.6480 0.6500
14.359000 0.6500 0.6510 0.6510 0.6530 0.6530
14.393197 0.6530 0.6530 0.6530 0.6530 0.6530
14.428000 0.6530 0.6530 0.6550 0.6550 0.6550
14.462197 0.6550 0.6550 0.6550 0.6550 0.6550
14.496000 0.6530 0.6530 0.6530 0.6530 0.6510
14.530197 0.6500 0.6480 0.6480 0.6480 0.6480
14.564000 0.6480 0.6460 0.6460 0.6450 0.6450
14.598197 0.6430 0.6430 0.6410 0.6410 0.6390
14.633000 0.6390 0.6380 0.6340 0.6340 0.6330
14.667197 0.6290 0.6290 0.6270 0.6260 0.6260
14.701000 0.6220 0.6220 0.6220 0.6220 0.6210
14.735197 0.6210 0.6190 0.6190 0.6170 0.6170
14.770000 0.6160 0.6140 0.6120 0.6120 0.6100
14.804197 0.6100 0.6070 0.6040 0.6020 0.6000
14.838000 0.6000 0.5980 0.5980 0.5970 0.5970
14.872197 0.5950 0.5930 0.5900 0.5900 0.5880
14.906000 0.5870 0.5870 0.5850 0.5850 0.5830
14.940197 0.5830 0.5830 0.5810 0.5810 0.5810
14.975000 0.5810 0.5810 0.5810 0.5810 0.5800
15.009197 0.5780 0.5780 0.5750 0.5710 0.5660
15.043000 0.5630 0.5590 0.5590 0.5560 0.5540
15.077197 0.5510 0.5490 0.5470 0.5470 0.5440
15.111000 0.5420 0.5390 0.5390 0.5370 0.5370
15.145197 0.5350 0.5340 0.5340 0.5320 0.5300
15.180000 0.5290 0.5270 0.5270 0.5250 0.5230
15.214197 0.5220 0.5180 0.5150 0.5110 0.5100
15.248000 0.5100 0.5080 0.5080 0.5050 0.5050
15.282197 0.5010 0.5000 0.5000 0.4980 0.4940
15.316000 0.4930 0.4910 0.4890 0.4860 0.4860
15.350197 0.4840 0.4820 0.4820 0.4820 0.4810
15.385000 0.4810 0.4790 0.4770 0.4760 0.4720
15.419197 0.4670 0.4620 0.4600 0.4590 0.4590
15.453000 0.4570 0.4550 0.4550 0.4530 0.4530
15.487197 0.4520 0.4500 0.4500 0.4500 0.4480
15.521000 0.4480 0.4450 0.4450 0.4450 0.4450
15.555197 0.4430 0.4410 0.4410 0.4400 0.4400
15.590000 0.4380 0.4360 0.4360 0.4350 0.4330
15.624197 0.4330 0.4310 0.4310 0.4300 0.4300
15.658000 0.4300 0.4300 0.4280 0.4280 0.4260
15.692197 0.4240 0.4230 0.4210 0.4210 0.4190
15.727000 0.4190 0.4190 0.4190 0.4190 0.4180
15.761197 0.4180 0.4180 0.4180 0.4180 0.4160
15.795000 0.4160 0.4160 0.4160 0.4160 0.4140
15.829197 0.4140 0.4140 0.4120 0.4120 0.4120
15.863000 0.4110 0.4110 0.4090 0.4090 0.4090
15.897197 0.4090 0.4090 0.4090 0.4090 0.4110
15.932000 0.4090
##END=
