##TITLE=1-FLUORO-1,2,2-TRICHLOROETHANE
##JCAMP-DX=4.24
##DATA TYPE=INFRARED SPECTRUM
##CLASS=COBLENTZ
##ORIGIN=DOW CHEMICAL COMPANY
##OWNER=COBLENTZ SOCIETY
Collection (C) 2018 copyright by the U.S. Secretary of Commerce
on behalf of the United States of America. All rights reserved.
##DATE=Not specified, most likely prior to 1970
##NAMES=1,1,2-trichloro-2-fluoroethane
##CAS REGISTRY NO=359-28-4
##MOLFORM=C2 H2 Cl3 F
##SOURCE REFERENCE=COBLENTZ NO. 18
##$NIST SOURCE=COBLENTZ
##$NIST IMAGE=cob18
##SPECTROMETER/DATA SYSTEM=Not specified, most likely a prism, grating, or hybrid spectrometer.
##STATE=SOLUTION (10% CCl4 FOR 2.5-7.5, 10% CS2 FOR 7.5-16 MICRONS)
##PATH LENGTH=0.01 CM, 0.01 CM
$$SPECTRAL CONTAMINATION DUE TO CCl4 AROUND 1550 CM^-^1
##SAMPLING PROCEDURE=TRANSMISSION
##RESOLUTION=4
##DATA PROCESSING=DIGITIZED BY NIST FROM HARD COPY
##XUNITS=MICROMETERS
##YUNITS=TRANSMITTANCE
##XFACTOR=1.000000
##YFACTOR=1
##DELTAX=000.006691
##FIRSTX=2.023
##LASTX=15.9812
##FIRSTY=0.846
##MAXX=15.9812
##MINX=2.023
##MAXY=0.889
##MINY=0.043
##NPOINTS=2087
##XYDATA=(X++(Y..Y))
2.023000 0.8460 0.8470 0.8470 0.8490 0.8490
2.056473 0.8490 0.8500 0.8500 0.8500 0.8500
2.090000 0.8500 0.8500 0.8500 0.8500 0.8500
2.123473 0.8500 0.8500 0.8500 0.8500 0.8500
2.157000 0.8500 0.8500 0.8500 0.8500 0.8500
2.190473 0.8500 0.8500 0.8500 0.8500 0.8500
2.224000 0.8500 0.8500 0.8500 0.8490 0.8490
2.257473 0.8490 0.8490 0.8490 0.8490 0.8490
2.291000 0.8490 0.8490 0.8490 0.8490 0.8470
2.324473 0.8470 0.8470 0.8470 0.8470 0.8470
2.358000 0.8470 0.8470 0.8470 0.8470 0.8470
2.391473 0.8490 0.8490 0.8500 0.8540 0.8590
2.425000 0.8590 0.8600 0.8600 0.8600 0.8600
2.458473 0.8620 0.8620 0.8620 0.8620 0.8620
2.491000 0.8620 0.8620 0.8620 0.8620 0.8620
2.524473 0.8650 0.8650 0.8670 0.8670 0.8670
2.558000 0.8670 0.8670 0.8690 0.8690 0.8690
2.591473 0.8690 0.8690 0.8690 0.8690 0.8700
2.625000 0.8700 0.8700 0.8700 0.8700 0.8700
2.658473 0.8720 0.8720 0.8700 0.8700 0.8700
2.692000 0.8700 0.8700 0.8690 0.8650 0.8640
2.725473 0.8640 0.8640 0.8620 0.8620 0.8590
2.759000 0.8590 0.8540 0.8540 0.8520 0.8520
2.792473 0.8520 0.8500 0.8490 0.8490 0.8470
2.826000 0.8460 0.8460 0.8460 0.8440 0.8460
2.859473 0.8440 0.8440 0.8420 0.8420 0.8420
2.893000 0.8410 0.8410 0.8410 0.8390 0.8390
2.926473 0.8390 0.8370 0.8370 0.8360 0.8360
2.960000 0.8360 0.8360 0.8360 0.8360 0.8370
2.993473 0.8370 0.8370 0.8370 0.8370 0.8370
3.027000 0.8390 0.8390 0.8410 0.8390 0.8390
3.060473 0.8390 0.8370 0.8370 0.8360 0.8360
3.094000 0.8340 0.8360 0.8360 0.8390 0.8390
3.127473 0.8410 0.8420 0.8420 0.8420 0.8420
3.161000 0.8420 0.8440 0.8440 0.8440 0.8460
3.194473 0.8460 0.8460 0.8440 0.8420 0.8420
3.228000 0.8420 0.8410 0.8410 0.8390 0.8360
3.261473 0.8340 0.8320 0.8290 0.8260 0.8220
3.294000 0.8160 0.8140 0.8090 0.7990 0.7790
3.327473 0.7710 0.7660 0.7630 0.7630 0.7710
3.361000 0.7810 0.8020 0.8220 0.8360 0.8460
3.394473 0.8490 0.8520 0.8540 0.8540 0.8540
3.428000 0.8540 0.8540 0.8540 0.8540 0.8540
3.461473 0.8540 0.8540 0.8540 0.8540 0.8540
3.495000 0.8540 0.8540 0.8540 0.8540 0.8540
3.528473 0.8540 0.8540 0.8550 0.8570 0.8600
3.562000 0.8600 0.8600 0.8600 0.8600 0.8600
3.595473 0.8600 0.8600 0.8620 0.8620 0.8620
3.629000 0.8620 0.8620 0.8620 0.8620 0.8620
3.662473 0.8620 0.8600 0.8600 0.8600 0.8600
3.696000 0.8600 0.8600 0.8620 0.8620 0.8620
3.729473 0.8620 0.8640 0.8640 0.8640 0.8640
3.763000 0.8640 0.8640 0.8640 0.8640 0.8640
3.796473 0.8640 0.8620 0.8640 0.8640 0.8640
3.830000 0.8650 0.8650 0.8670 0.8670 0.8690
3.863473 0.8690 0.8700 0.8700 0.8720 0.8720
3.897000 0.8720 0.8720 0.8720 0.8700 0.8690
3.930473 0.8670 0.8650 0.8640 0.8640 0.8620
3.964000 0.8620 0.8620 0.8620 0.8620 0.8620
3.997473 0.8620 0.8620 0.8620 0.8620 0.8600
4.030000 0.8600 0.8590 0.8570 0.8590 0.8600
4.063473 0.8640 0.8640 0.8640 0.8640 0.8620
4.097000 0.8600 0.8600 0.8590 0.8590 0.8590
4.130473 0.8590 0.8570 0.8590 0.8590 0.8600
4.164000 0.8620 0.8640 0.8650 0.8650 0.8650
4.197473 0.8650 0.8650 0.8650 0.8640 0.8640
4.231000 0.8620 0.8620 0.8600 0.8600 0.8600
4.264473 0.8600 0.8590 0.8570 0.8550 0.8550
4.298000 0.8550 0.8540 0.8540 0.8520 0.8520
4.331473 0.8520 0.8520 0.8520 0.8520 0.8520
4.365000 0.8540 0.8570 0.8590 0.8600 0.8620
4.398473 0.8620 0.8640 0.8650 0.8650 0.8650
4.432000 0.8650 0.8690 0.8700 0.8700 0.8720
4.465473 0.8720 0.8740 0.8740 0.8740 0.8740
4.499000 0.8740 0.8740 0.8740 0.8750 0.8750
4.532473 0.8750 0.8750 0.8750 0.8750 0.8770
4.566000 0.8790 0.8800 0.8800 0.8770 0.8750
4.599473 0.8750 0.8750 0.8750 0.8750 0.8750
4.633000 0.8750 0.8750 0.8770 0.8790 0.8790
4.666473 0.8790 0.8790 0.8790 0.8770 0.8750
4.700000 0.8740 0.8740 0.8740 0.8740 0.8740
4.733473 0.8720 0.8720 0.8720 0.8720 0.8720
4.767000 0.8720 0.8720 0.8740 0.8740 0.8740
4.800473 0.8740 0.8740 0.8740 0.8740 0.8740
4.833000 0.8740 0.8720 0.8720 0.8720 0.8720
4.866473 0.8720 0.8720 0.8720 0.8740 0.8750
4.900000 0.8770 0.8800 0.8800 0.8800 0.8800
4.933473 0.8800 0.8800 0.8800 0.8800 0.8820
4.967000 0.8800 0.8800 0.8800 0.8820 0.8820
5.000473 0.8820 0.8820 0.8820 0.8820 0.8820
5.034000 0.8840 0.8840 0.8840 0.8840 0.8840
5.067473 0.8850 0.8850 0.8850 0.8850 0.8850
5.101000 0.8850 0.8850 0.8850 0.8850 0.8850
5.134473 0.8870 0.8870 0.8870 0.8870 0.8870
5.168000 0.8850 0.8850 0.8870 0.8870 0.8870
5.201473 0.8870 0.8870 0.8870 0.8870 0.8870
5.235000 0.8850 0.8850 0.8850 0.8850 0.8840
5.268473 0.8840 0.8840 0.8840 0.8840 0.8840
5.302000 0.8840 0.8840 0.8840 0.8840 0.8840
5.335473 0.8840 0.8840 0.8840 0.8840 0.8840
5.369000 0.8840 0.8820 0.8820 0.8850 0.8840
5.402473 0.8840 0.8840 0.8840 0.8850 0.8840
5.436000 0.8840 0.8840 0.8840 0.8840 0.8840
5.469473 0.8840 0.8840 0.8820 0.8820 0.8820
5.503000 0.8840 0.8840 0.8840 0.8850 0.8850
5.536473 0.8870 0.8890 0.8870 0.8890 0.8890
5.570000 0.8890 0.8890 0.8890 0.8890 0.8890
5.603473 0.8890 0.8890 0.8890 0.8890 0.8890
5.636000 0.8890 0.8890 0.8890 0.8890 0.8890
5.669473 0.8890 0.8890 0.8890 0.8890 0.8890
5.703000 0.8890 0.8890 0.8890 0.8890 0.8870
5.736473 0.8870 0.8870 0.8870 0.8870 0.8870
5.770000 0.8870 0.8870 0.8870 0.8870 0.8870
5.803473 0.8870 0.8870 0.8870 0.8870 0.8870
5.837000 0.8870 0.8890 0.8870 0.8850 0.8850
5.870473 0.8850 0.8850 0.8850 0.8850 0.8850
5.904000 0.8850 0.8840 0.8820 0.8820 0.8820
5.937473 0.8820 0.8820 0.8840 0.8820 0.8820
5.971000 0.8800 0.8800 0.8790 0.8770 0.8770
6.004473 0.8750 0.8720 0.8720 0.8720 0.8720
6.038000 0.8700 0.8650 0.8650 0.8600 0.8590
6.071473 0.8570 0.8570 0.8570 0.8570 0.8570
6.105000 0.8570 0.8570 0.8570 0.8550 0.8550
6.138473 0.8550 0.8550 0.8540 0.8520 0.8500
6.172000 0.8410 0.8340 0.8260 0.8240 0.8110
6.205473 0.8010 0.7910 0.7780 0.7610 0.7510
6.239000 0.7400 0.7210 0.7200 0.7010 0.6900
6.272473 0.6800 0.6720 0.6620 0.6500 0.6500
6.306000 0.6420 0.6400 0.6350 0.6340 0.6300
6.339473 0.6250 0.6220 0.6150 0.6100 0.6000
6.372000 0.6000 0.5970 0.5870 0.5790 0.5670
6.405473 0.5480 0.5390 0.5290 0.5180 0.5090
6.439000 0.5010 0.5000 0.5000 0.4950 0.4950
6.472473 0.5000 0.5030 0.5090 0.5210 0.5310
6.506000 0.5520 0.5670 0.5770 0.6000 0.6070
6.539473 0.6140 0.6200 0.6250 0.6320 0.6400
6.573000 0.6500 0.6580 0.6730 0.6800 0.6900
6.606473 0.6980 0.7050 0.7180 0.7230 0.7350
6.640000 0.7450 0.7530 0.7660 0.7710 0.7790
6.673473 0.7890 0.8010 0.8010 0.8060 0.8120
6.707000 0.8210 0.8290 0.8390 0.8420 0.8440
6.740473 0.8460 0.8440 0.8440 0.8460 0.8470
6.774000 0.8500 0.8540 0.8600 0.8640 0.8690
6.807473 0.8720 0.8740 0.8740 0.8740 0.8740
6.841000 0.8750 0.8750 0.8750 0.8750 0.8750
6.874473 0.8750 0.8770 0.8770 0.8770 0.8770
6.908000 0.8790 0.8800 0.8820 0.8820 0.8820
6.941473 0.8820 0.8820 0.8820 0.8820 0.8820
6.975000 0.8820 0.8820 0.8840 0.8840 0.8840
7.008473 0.8840 0.8820 0.8820 0.8820 0.8820
7.042000 0.8820 0.8820 0.8820 0.8820 0.8820
7.075473 0.8840 0.8840 0.8850 0.8850 0.8850
7.109000 0.8850 0.8870 0.8870 0.8870 0.8870
7.142473 0.8850 0.8850 0.8850 0.8850 0.8870
7.175000 0.8870 0.8870 0.8870 0.8870 0.8870
7.208473 0.8870 0.8870 0.8870 0.8850 0.8850
7.242000 0.8850 0.8840 0.8820 0.8820 0.8800
7.275473 0.8800 0.8770 0.8750 0.8740 0.8720
7.309000 0.8720 0.8650 0.8650 0.8640 0.8620
7.342473 0.8550 0.8540 0.8540 0.8500 0.8420
7.376000 0.8390 0.8260 0.8110 0.7960 0.7810
7.409473 0.7630 0.7480 0.7330 0.7310 0.7250
7.443000 0.7250 0.7330 0.7500 0.7790 0.8040
7.476473 0.8210 0.8260 0.8210 0.8120 0.8010
7.510000 0.7840 0.7740 0.7740 0.7710 0.7710
7.543473 0.7740 0.7810 0.7860 0.7990 0.8020
7.577000 0.8120 0.8260 0.8390 0.8410 0.8420
7.610473 0.8440 0.8440 0.8460 0.8440 0.8390
7.644000 0.8340 0.8290 0.8210 0.8110 0.8020
7.677473 0.7980 0.7730 0.7530 0.7300 0.7030
7.711000 0.6720 0.6620 0.6500 0.6300 0.6250
7.744473 0.6240 0.6290 0.6300 0.6400 0.6550
7.778000 0.6830 0.6850 0.6950 0.6980 0.7030
7.811473 0.7150 0.7250 0.7330 0.7410 0.7410
7.845000 0.7410 0.7410 0.7350 0.7310 0.7230
7.878473 0.7200 0.7180 0.7150 0.7160 0.7180
7.912000 0.7200 0.7330 0.7510 0.7580 0.7640
7.945473 0.7730 0.7740 0.7740 0.7760 0.7790
7.978000 0.7790 0.7790 0.7790 0.7780 0.7760
8.011473 0.7740 0.7730 0.7710 0.7710 0.7710
8.045000 0.7690 0.7690 0.7690 0.7690 0.7690
8.078473 0.7690 0.7710 0.7730 0.7730 0.7740
8.112000 0.7790 0.7830 0.7860 0.7910 0.7940
8.145473 0.7940 0.7940 0.7930 0.7930 0.7860
8.179000 0.7830 0.7740 0.7690 0.7510 0.7350
8.212473 0.7200 0.6930 0.6780 0.6630 0.6400
8.246000 0.6000 0.5720 0.5330 0.5210 0.5010
8.279473 0.4960 0.4900 0.4900 0.4960 0.5010
8.313000 0.5210 0.5410 0.5610 0.5840 0.6040
8.346473 0.6200 0.6340 0.6520 0.6900 0.7150
8.380000 0.7260 0.7480 0.7580 0.7690 0.7780
8.413473 0.7860 0.7930 0.8010 0.8070 0.8140
8.447000 0.8210 0.8240 0.8260 0.8320 0.8320
8.480473 0.8320 0.8340 0.8340 0.8340 0.8340
8.514000 0.8340 0.8340 0.8320 0.8310 0.8260
8.547473 0.8260 0.8240 0.8210 0.8160 0.8160
8.581000 0.8140 0.8140 0.8120 0.8010 0.8010
8.614473 0.7890 0.7840 0.7840 0.7830 0.7810
8.648000 0.7780 0.7740 0.7740 0.7740 0.7740
8.681473 0.7740 0.7780 0.7810 0.7840 0.7840
8.714000 0.7890 0.7910 0.7930 0.7930 0.7930
8.747473 0.7940 0.7930 0.7940 0.7930 0.7930
8.781000 0.7930 0.7910 0.7880 0.7830 0.7790
8.814473 0.7730 0.7690 0.7640 0.7630 0.7590
8.848000 0.7510 0.7430 0.7350 0.7300 0.7180
8.881473 0.7130 0.7000 0.6800 0.6730 0.6650
8.915000 0.6500 0.6200 0.5820 0.5570 0.5010
8.948473 0.4600 0.4000 0.3590 0.3410 0.3210
8.982000 0.2830 0.2500 0.2210 0.2110 0.2100
9.015473 0.2130 0.2450 0.2740 0.3670 0.4100
9.049000 0.4510 0.4780 0.5090 0.5390 0.5540
9.082473 0.5710 0.5890 0.6000 0.6120 0.6190
9.116000 0.6300 0.6300 0.6290 0.6290 0.6270
9.149473 0.6220 0.6140 0.6000 0.5810 0.5510
9.183000 0.5140 0.4760 0.4380 0.4000 0.3700
9.216473 0.3490 0.3340 0.3190 0.2940 0.2740
9.250000 0.2740 0.2760 0.2810 0.2990 0.3090
9.283473 0.3220 0.4000 0.4180 0.4380 0.4480
9.317000 0.4500 0.4500 0.4420 0.4320 0.4170
9.350473 0.4000 0.3800 0.3590 0.3490 0.3390
9.384000 0.3360 0.3310 0.3310 0.3310 0.3320
9.417473 0.3750 0.3950 0.4150 0.4370 0.4480
9.451000 0.4710 0.4960 0.5290 0.5490 0.5640
9.484473 0.5810 0.5920 0.6020 0.6070 0.6170
9.517000 0.6220 0.6220 0.6220 0.6200 0.6120
9.550473 0.6040 0.5910 0.5660 0.5380 0.5090
9.584000 0.4660 0.4230 0.3790 0.3340 0.3210
9.617473 0.3070 0.2840 0.2790 0.2760 0.2790
9.651000 0.2810 0.2880 0.3010 0.3140 0.3420
9.684473 0.3570 0.3640 0.3690 0.3700 0.3670
9.718000 0.3640 0.3520 0.3500 0.3460 0.3440
9.751473 0.3390 0.3390 0.3500 0.3540 0.3900
9.785000 0.4120 0.4420 0.4710 0.4980 0.5240
9.818473 0.5510 0.5770 0.6040 0.6300 0.6550
9.852000 0.7010 0.7200 0.7330 0.7410 0.7510
9.885473 0.7610 0.7710 0.7790 0.7840 0.7910
9.919000 0.7990 0.8010 0.8020 0.8060 0.8120
9.952473 0.8160 0.8210 0.8260 0.8290 0.8320
9.986000 0.8320 0.8340 0.8360 0.8360 0.8390
10.019473 0.8420 0.8440 0.8460 0.8460 0.8470
10.053000 0.8470 0.8470 0.8470 0.8470 0.8470
10.086473 0.8490 0.8490 0.8520 0.8520 0.8520
10.120000 0.8520 0.8520 0.8520 0.8500 0.8490
10.153473 0.8470 0.8460 0.8470 0.8470 0.8470
10.187000 0.8470 0.8470 0.8470 0.8460 0.8440
10.220473 0.8440 0.8420 0.8420 0.8410 0.8410
10.254000 0.8360 0.8340 0.8320 0.8270 0.8240
10.287473 0.8220 0.8210 0.8160 0.8120 0.8020
10.320000 0.8010 0.7910 0.7790 0.7690 0.7510
10.353473 0.7380 0.7210 0.7000 0.6800 0.6580
10.387000 0.6300 0.6000 0.5720 0.5330 0.5060
10.420473 0.4830 0.4800 0.4600 0.4580 0.4600
10.454000 0.4700 0.5000 0.5140 0.5610 0.6020
10.487473 0.6300 0.6530 0.7000 0.7130 0.7260
10.521000 0.7330 0.7400 0.7450 0.7500 0.7510
10.554473 0.7530 0.7560 0.7630 0.7640 0.7640
10.588000 0.7690 0.7730 0.7730 0.7780 0.7840
10.621473 0.7910 0.7940 0.7980 0.8020 0.8090
10.655000 0.8120 0.8160 0.8210 0.8240 0.8260
10.688473 0.8310 0.8340 0.8360 0.8360 0.8410
10.722000 0.8420 0.8440 0.8460 0.8470 0.8500
10.755473 0.8500 0.8520 0.8520 0.8540 0.8540
10.789000 0.8540 0.8550 0.8550 0.8550 0.8550
10.822473 0.8550 0.8550 0.8550 0.8550 0.8550
10.856000 0.8550 0.8550 0.8550 0.8550 0.8550
10.889473 0.8550 0.8550 0.8540 0.8540 0.8520
10.923000 0.8520 0.8390 0.8270 0.8220 0.8120
10.956473 0.8020 0.8010 0.7830 0.7710 0.7680
10.990000 0.7540 0.7460 0.7250 0.7250 0.7180
11.023473 0.7150 0.7150 0.7150 0.7150 0.7210
11.057000 0.7230 0.7330 0.7510 0.7640 0.7780
11.090473 0.7830 0.7930 0.8020 0.8020 0.8060
11.123000 0.8140 0.8160 0.8210 0.8220 0.8260
11.156473 0.8290 0.8340 0.8360 0.8360 0.8360
11.190000 0.8340 0.8320 0.8310 0.8290 0.8260
11.223473 0.8260 0.8240 0.8220 0.8210 0.8190
11.257000 0.8160 0.8140 0.8140 0.8110 0.8090
11.290473 0.8060 0.8040 0.8010 0.7990 0.7980
11.324000 0.7960 0.7930 0.7890 0.7840 0.7840
11.357473 0.7830 0.7760 0.7740 0.7730 0.7710
11.391000 0.7680 0.7660 0.7640 0.7560 0.7530
11.424473 0.7500 0.7500 0.7480 0.7450 0.7450
11.458000 0.7430 0.7410 0.7350 0.7350 0.7330
11.491473 0.7300 0.7260 0.7250 0.7230 0.7230
11.525000 0.7210 0.7200 0.7150 0.7130 0.7130
11.558473 0.7080 0.7050 0.7030 0.7000 0.7000
11.592000 0.6920 0.6870 0.6820 0.6700 0.6670
11.625473 0.6620 0.6580 0.6500 0.6470 0.6440
11.659000 0.6440 0.6420 0.6400 0.6390 0.6390
11.692473 0.6390 0.6390 0.6400 0.6400 0.6420
11.726000 0.6440 0.6500 0.6520 0.6580 0.6620
11.759473 0.6720 0.6780 0.6800 0.6830 0.6870
11.793000 0.6900 0.6970 0.7000 0.7000 0.7030
11.826473 0.7130 0.7130 0.7150 0.7180 0.7200
11.859000 0.7210 0.7230 0.7250 0.7250 0.7260
11.892473 0.7260 0.7250 0.7230 0.7210 0.7180
11.926000 0.7130 0.7080 0.7010 0.7000 0.6880
11.959473 0.6800 0.6700 0.6670 0.6620 0.6600
11.993000 0.6440 0.6250 0.6140 0.5910 0.5720
12.026473 0.5510 0.5230 0.5080 0.4730 0.4600
12.060000 0.4220 0.3970 0.3500 0.3310 0.3110
12.093473 0.2860 0.2580 0.2300 0.2110 0.1970
12.127000 0.1780 0.1600 0.1530 0.1520 0.1500
12.160473 0.1490 0.1500 0.1500 0.1520 0.1570
12.194000 0.1620 0.1720 0.1820 0.1980 0.2130
12.227473 0.2260 0.2430 0.2580 0.2730 0.2830
12.261000 0.3010 0.3090 0.3220 0.3320 0.3490
12.294473 0.3490 0.3500 0.3540 0.3590 0.3590
12.328000 0.3590 0.3590 0.3590 0.3590 0.3590
12.361473 0.3570 0.3570 0.3550 0.3550 0.3550
12.395000 0.3590 0.3690 0.3770 0.3850 0.3920
12.428473 0.3990 0.4020 0.4100 0.4150 0.4170
12.462000 0.4170 0.4180 0.4150 0.4100 0.3990
12.495473 0.3900 0.3700 0.3600 0.3490 0.3410
12.529000 0.3310 0.2990 0.2790 0.2510 0.2180
12.562473 0.2000 0.1680 0.1520 0.1470 0.1220
12.596000 0.1070 0.1000 0.0990 0.0970 0.0990
12.629473 0.1040 0.1050 0.1100 0.1190 0.1270
12.662000 0.1390 0.1490 0.1700 0.1950 0.2010
12.695473 0.2280 0.2500 0.2580 0.2690 0.2790
12.729000 0.2980 0.3070 0.3240 0.3500 0.3670
12.762473 0.3700 0.3820 0.3990 0.4000 0.4130
12.796000 0.4150 0.4200 0.4300 0.4430 0.4710
12.829473 0.4760 0.4780 0.4810 0.4810 0.4900
12.863000 0.4980 0.5000 0.5010 0.5080 0.5130
12.896473 0.5190 0.5260 0.5390 0.5390 0.5490
12.930000 0.5510 0.5570 0.5620 0.5670 0.5720
12.963473 0.5790 0.5840 0.5860 0.5920 0.5940
12.997000 0.5940 0.5990 0.5990 0.6000 0.6000
13.030473 0.5990 0.5990 0.5940 0.5920 0.5860
13.064000 0.5810 0.5790 0.5690 0.5610 0.5590
13.097473 0.5490 0.5480 0.5390 0.5280 0.5180
13.131000 0.5060 0.5000 0.4800 0.4600 0.4510
13.164473 0.4330 0.4170 0.3840 0.3720 0.3570
13.198000 0.3460 0.3320 0.3070 0.2760 0.2300
13.231473 0.2110 0.1920 0.1670 0.1490 0.1350
13.265000 0.1240 0.1000 0.0960 0.0790 0.0740
13.298473 0.0620 0.0570 0.0510 0.0490 0.0480
13.332000 0.0430 0.0430 0.0430 0.0440 0.0480
13.365473 0.0490 0.0490 0.0510 0.0510 0.0510
13.399000 0.0520 0.0520 0.0520 0.0520 0.0520
13.432473 0.0540 0.0520 0.0520 0.0520 0.0520
13.465000 0.0510 0.0510 0.0510 0.0510 0.0510
13.498473 0.0510 0.0510 0.0570 0.0590 0.0620
13.532000 0.0690 0.0790 0.0890 0.0990 0.1040
13.565473 0.1190 0.1290 0.1390 0.1530 0.1670
13.599000 0.1770 0.2010 0.2150 0.2230 0.2260
13.632473 0.2410 0.2610 0.2730 0.2980 0.3090
13.666000 0.3270 0.3600 0.3770 0.3970 0.4100
13.699473 0.4300 0.4400 0.4510 0.4610 0.4800
13.733000 0.4900 0.5010 0.5090 0.5260 0.5310
13.766473 0.5430 0.5490 0.5610 0.5690 0.5770
13.800000 0.5820 0.5890 0.5970 0.6000 0.6050
13.833473 0.6150 0.6220 0.6240 0.6250 0.6290
13.867000 0.6320 0.6340 0.6350 0.6390 0.6420
13.900473 0.6470 0.6500 0.6520 0.6530 0.6550
13.934000 0.6580 0.6600 0.6620 0.6630 0.6630
13.967473 0.6630 0.6650 0.6650 0.6670 0.6680
14.001000 0.6680 0.6680 0.6700 0.6700 0.6700
14.034473 0.6700 0.6720 0.6720 0.6720 0.6720
14.068000 0.6730 0.6730 0.6730 0.6730 0.6730
14.101473 0.6730 0.6750 0.6750 0.6750 0.6750
14.135000 0.6750 0.6750 0.6750 0.6730 0.6730
14.168473 0.6720 0.6720 0.6720 0.6720 0.6720
14.201000 0.6700 0.6700 0.6700 0.6700 0.6680
14.234473 0.6680 0.6680 0.6680 0.6670 0.6670
14.268000 0.6670 0.6670 0.6670 0.6650 0.6650
14.301473 0.6650 0.6650 0.6630 0.6630 0.6630
14.335000 0.6630 0.6620 0.6620 0.6600 0.6580
14.368473 0.6570 0.6570 0.6550 0.6550 0.6530
14.402000 0.6530 0.6520 0.6520 0.6500 0.6500
14.435473 0.6490 0.6490 0.6470 0.6470 0.6450
14.469000 0.6450 0.6440 0.6440 0.6420 0.6420
14.502473 0.6400 0.6390 0.6390 0.6370 0.6350
14.536000 0.6340 0.6320 0.6300 0.6300 0.6300
14.569473 0.6300 0.6290 0.6270 0.6250 0.6240
14.603000 0.6220 0.6220 0.6200 0.6190 0.6170
14.636473 0.6140 0.6120 0.6100 0.6090 0.6070
14.670000 0.6050 0.6040 0.6020 0.6000 0.5990
14.703473 0.5970 0.5960 0.5940 0.5940 0.5920
14.737000 0.5890 0.5840 0.5820 0.5770 0.5740
14.770473 0.5740 0.5720 0.5710 0.5670 0.5640
14.804000 0.5570 0.5540 0.5520 0.5490 0.5410
14.837473 0.5360 0.5310 0.5290 0.5230 0.5190
14.871000 0.5140 0.5080 0.5030 0.5000 0.4980
14.904473 0.4860 0.4780 0.4730 0.4660 0.4610
14.938000 0.4560 0.4500 0.4450 0.4350 0.4230
14.971473 0.4170 0.4080 0.3990 0.3970 0.3950
15.004000 0.3920 0.3870 0.3800 0.3670 0.3470
15.037473 0.3420 0.3370 0.3360 0.3320 0.3310
15.071000 0.3290 0.3270 0.3270 0.3270 0.3270
15.104473 0.3270 0.3270 0.3270 0.3270 0.3290
15.138000 0.3320 0.3320 0.3440 0.3490 0.3550
15.171473 0.3620 0.3670 0.3700 0.3750 0.3790
15.205000 0.3820 0.3850 0.3870 0.3900 0.3920
15.238473 0.3950 0.3990 0.3990 0.4020 0.4050
15.272000 0.4100 0.4120 0.4150 0.4170 0.4170
15.305473 0.4180 0.4200 0.4200 0.4220 0.4220
15.339000 0.4230 0.4250 0.4250 0.4250 0.4250
15.372473 0.4280 0.4280 0.4280 0.4280 0.4280
15.406000 0.4280 0.4280 0.4280 0.4280 0.4280
15.439473 0.4280 0.4280 0.4280 0.4280 0.4280
15.473000 0.4280 0.4280 0.4280 0.4280 0.4280
15.506473 0.4280 0.4280 0.4280 0.4280 0.4280
15.540000 0.4280 0.4280 0.4280 0.4270 0.4270
15.573473 0.4250 0.4250 0.4230 0.4230 0.4220
15.607000 0.4220 0.4220 0.4220 0.4200 0.4200
15.640473 0.4200 0.4200 0.4200 0.4200 0.4200
15.674000 0.4200 0.4180 0.4180 0.4180 0.4180
15.707473 0.4180 0.4170 0.4170 0.4170 0.4170
15.741000 0.4170 0.4150 0.4130 0.4120 0.4120
15.774473 0.4130 0.4120 0.4120 0.4120 0.4100
15.807000 0.4100 0.4080 0.4080 0.4070 0.4070
15.840473 0.4050 0.4070 0.4070 0.4050 0.4050
15.874000 0.4050 0.4050 0.4050 0.4030 0.4030
15.907473 0.4030 0.4030 0.4020 0.4020 0.4020
15.941000 0.4020 0.4020 0.4020 0.4020 0.4020
15.974473 0.4020 0.4020
##END=
