##TITLE=Difluoroacetic acid
##JCAMP-DX=4.24
##DATA TYPE=INFRARED SPECTRUM
##ORIGIN=EPA-IR VAPOR PHASE LIBRARY
##OWNER=SRD/NIST
Collection (C) 2018 copyright by the U.S. Secretary of Commerce
on behalf of the United States of America. All rights reserved.
##CAS REGISTRY NO=381-73-7
##MOLFORM=C 2 H 2 F 2 O 2
##$NIST SOURCE=MSDC-IR
##STATE=gas
##XUNITS=1/CM
##YUNITS=ABSORBANCE
##XFACTOR=1.
##YFACTOR=0.001
##DELTAX=1.92898
##FIRSTX=549.8
##LASTX=4000.7
##FIRSTY=96.062
##MAXX=4000.7
##MINX=549.759
##MAXY=0.684922
##MINY=0
##NPOINTS=1790
##XYDATA=(X++(Y..Y))
549.759 96.062 103.412 109.762 115.532 120.462 124.332 127.782 132.182 139.802 148.062
569.049 149.512 145.862 141.572 135.472 132.832 133.842 133.602 131.292 125.772 118.112
588.339 109.122 99.132 90.062 83.032 78.072 73.912 70.602 68.292 66.842 66.182
607.628 66.032 65.792 65.632 66.082 66.532 66.712 66.992 67.782 68.542 69.282
626.918 70.282 71.542 73.672 75.942 77.372 78.782 80.532 82.222 83.272 83.872
646.208 84.082 82.542 80.302 78.892 77.482 75.852 74.382 72.232 68.542 64.062
665.498 60.032 57.082 54.202 50.992 47.882 44.832 42.012 39.072 36.022 33.592
684.787 31.912 30.472 29.232 28.422 28.032 27.832 27.672 27.892 28.042 28.082
704.077 28.312 28.812 29.432 30.242 31.032 31.562 32.062 32.742 33.572 34.292
723.367 35.142 36.032 36.722 37.392 38.062 38.402 38.632 38.692 39.022 39.862
742.657 41.532 42.302 41.192 40.412 40.232 40.212 39.982 39.382 38.512 37.552
761.947 36.722 36.002 35.342 34.632 33.662 32.622 31.532 30.072 28.622 27.242
781.236 25.972 24.592 22.812 21.182 19.952 18.522 16.842 15.402 14.202 13.262
800.526 12.392 11.532 10.652 10.152 9.712 9.132 8.832 8.562 8.402 8.162
819.816 7.972 8.082 8.152 7.782 7.792 8.182 8.112 8.202 8.442 8.682
839.106 8.862 9.182 9.452 9.662 10.282 10.852 11.172 11.822 12.812 13.732
858.395 14.882 16.172 17.452 18.982 20.752 22.702 24.932 27.392 29.842 32.392
877.685 35.002 37.772 40.592 43.142 45.872 48.802 52.032 55.422 58.142 59.962
896.975 61.062 62.172 63.282 63.722 63.752 63.492 62.812 62.202 60.212 55.382
916.265 50.892 48.192 45.742 43.582 41.222 37.882 33.952 30.102 26.222 22.532
935.555 19.512 17.242 15.592 14.162 12.722 11.642 10.822 10.082 9.772 9.482
954.844 8.732 7.832 7.512 7.182 6.712 6.822 6.832 6.752 6.522 6.362
974.134 6.372 6.392 6.482 6.442 6.622 6.752 6.702 6.722 6.942 7.282
993.424 7.472 7.542 7.552 7.592 7.852 8.392 8.482 8.142 8.392 9.002
1012.714 9.402 9.942 10.522 11.082 11.402 11.902 13.052 14.192 15.092 16.092
1032.003 17.252 18.392 19.882 21.352 23.072 25.942 28.642 30.992 34.332 38.492
1051.293 42.632 46.922 52.272 58.352 65.392 73.102 81.872 92.232 102.722 114.042
1070.583 127.552 143.122 160.422 178.752 198.552 220.552 244.422 270.852 299.302 329.452
1089.873 360.992 392.952 428.532 465.812 502.732 539.162 571.422 600.622 626.122 647.222
1109.163 663.232 676.312 684.922 681.832 674.262 660.492 639.642 616.982 589.942 555.052
1128.452 517.222 483.502 452.492 422.992 392.552 362.282 331.852 302.382 277.092 255.322
1147.742 237.212 224.002 213.002 203.462 196.812 191.612 186.902 182.062 177.972 174.972
1167.032 172.772 170.032 166.492 163.362 157.952 149.812 141.292 133.192 126.462 119.722
1186.322 113.272 106.962 99.542 93.182 86.252 78.482 71.452 65.712 60.142 55.092
1205.611 51.222 48.032 45.352 42.932 39.452 36.292 35.352 33.892 32.352 31.202
1224.901 29.962 28.642 27.922 27.672 27.312 26.342 25.692 25.722 25.322 24.852
1244.191 24.872 24.892 24.592 24.392 24.522 24.542 24.772 25.382 26.122 26.822
1263.481 27.902 28.762 29.532 30.652 32.122 33.832 35.442 37.642 39.922 42.262
1282.771 44.942 47.772 50.732 53.712 56.702 59.962 63.442 66.862 70.442 74.032
1302.060 77.252 80.342 83.042 85.212 87.002 88.242 89.302 90.082 90.082 89.682
1321.350 89.532 89.552 89.002 88.322 88.512 89.292 89.932 90.202 90.262 89.722
1340.640 88.282 86.482 84.552 82.102 79.592 77.512 76.222 75.862 74.192 70.102
1359.930 65.272 60.832 57.112 54.482 52.802 51.852 51.292 51.042 51.222 51.842
1379.219 52.692 53.622 54.652 55.592 56.452 57.222 58.052 58.942 59.632 60.182
1398.509 60.592 60.762 60.722 60.442 59.772 58.552 56.452 53.922 51.702 49.852
1417.799 48.122 46.282 44.512 42.902 41.242 39.262 36.592 33.512 30.342 27.392
1437.089 24.532 21.922 19.682 17.632 15.902 14.462 13.222 12.182 11.182 10.302
1456.378 9.642 8.912 8.062 7.372 6.942 6.562 6.112 5.702 5.372 4.982
1475.668 4.722 4.502 4.212 4.042 3.912 3.812 3.622 3.442 3.252 3.102
1494.958 3.042 2.782 2.642 2.552 2.472 2.522 2.552 2.512 2.372 2.322
1514.248 2.392 2.472 2.542 2.562 2.452 2.502 2.562 2.412 2.292 2.312
1533.538 2.402 2.312 2.352 2.412 2.322 2.212 2.102 1.972 1.932 1.832
1552.827 1.632 1.502 1.3521 1.2077 0.9973 0.8316 0.8762 1.1383 1.3275 1.3093
1572.117 1.265 1.1903 1.1035 1.0616 1.0654 1.1034 1.3297 1.422 1.432 1.392
1591.407 1.2956 1.2425 1.1417 1.2109 1.392 1.402 1.452 1.682 1.692 1.692
1610.697 1.922 2.062 2.082 1.982 1.732 1.562 1.512 1.442 1.522 1.782
1629.986 1.962 2.292 2.812 3.202 3.452 3.682 3.862 4.172 4.562 4.682
1649.276 4.702 4.932 5.092 5.002 5.022 5.132 5.172 5.092 5.102 5.172
1668.566 5.282 5.282 5.182 5.142 4.932 4.812 4.812 4.802 4.872 4.742
1687.856 4.662 4.642 4.432 4.442 4.572 4.622 4.702 4.652 4.582 4.772
1707.146 5.072 5.342 5.592 5.862 6.232 6.692 7.092 7.522 8.122 8.792
1726.435 9.492 10.342 11.452 12.652 14.022 15.332 16.832 18.752 20.732 23.002
1745.725 25.782 28.862 32.392 36.412 40.632 45.422 50.882 56.802 63.432 70.632
1765.015 78.512 87.342 97.032 107.462 119.142 131.612 145.142 159.692 175.152 191.332
1784.305 207.892 224.512 240.622 256.012 270.152 283.332 295.462 306.702 317.572 328.022
1803.594 337.292 344.632 348.232 348.912 350.032 351.852 352.632 351.602 347.912 340.202
1822.884 328.172 313.152 296.602 279.312 261.152 242.902 224.932 207.302 190.242 173.882
1842.174 158.302 143.262 128.932 115.432 102.762 91.042 80.032 69.942 60.992 53.062
1861.464 45.962 39.762 34.352 29.742 25.812 22.402 19.462 17.062 15.022 13.182
1880.754 11.622 10.442 9.402 8.402 7.562 6.872 6.252 5.742 5.252 4.812
1900.043 4.482 4.192 3.932 3.682 3.512 3.352 3.192 3.052 2.922 2.812
1919.333 2.702 2.522 2.462 2.432 2.282 2.252 2.282 2.142 2.032 2.012
1938.623 1.972 1.992 2.032 1.922 1.872 1.912 1.862 1.812 1.832 1.852
1957.913 1.782 1.732 1.702 1.732 1.722 1.682 1.722 1.742 1.742 1.672
1977.202 1.692 1.772 1.772 1.712 1.642 1.692 1.662 1.602 1.632 1.642
1996.492 1.622 1.612 1.572 1.522 1.602 1.652 1.582 1.592 1.662 1.662
2015.782 1.662 1.762 1.712 1.722 1.772 1.732 1.822 1.902 1.982 2.012
2035.072 2.072 2.182 2.222 2.192 2.262 2.382 2.452 2.582 2.622 2.662
2054.362 2.672 2.662 2.712 2.682 2.722 2.772 2.732 2.512 2.352 2.352
2073.651 2.292 2.252 2.202 2.122 2.092 2.002 1.922 1.822 1.702 1.672
2092.941 1.532 1.502 1.472 1.422 1.512 1.512 1.432 1.412 1.402 1.2871
2112.231 1.3423 1.462 1.3537 1.2944 1.3068 1.3272 1.336 1.2884 1.3676 1.452
2131.521 1.412 1.442 1.552 1.592 1.572 1.612 1.672 1.762 1.832 1.872
2150.810 2.022 2.092 2.072 2.092 2.202 2.302 2.352 2.422 2.552 2.762
2170.100 2.872 2.942 3.062 3.142 3.182 3.262 3.322 3.352 3.532 3.722
2189.390 3.702 3.742 3.902 4.012 4.092 4.102 4.172 4.202 4.172 4.252
2208.680 4.342 4.432 4.392 4.342 4.372 4.342 4.342 4.372 4.302 4.202
2227.970 4.222 4.282 4.172 4.082 4.042 4.072 4.072 3.922 3.892 3.882
2247.259 3.852 3.802 3.722 3.692 3.732 3.732 3.592 3.472 3.472 3.432
2266.549 3.452 3.452 3.392 3.422 3.392 3.322 3.312 3.242 3.222 3.252
2285.839 3.232 3.302 3.212 3.112 3.182 3.202 3.092 3.042 2.972 2.872
2305.129 2.842 2.742 2.542 2.562 2.682 2.652 2.652 2.702 2.692 2.632
2324.418 2.442 2.272 2.282 2.322 2.372 2.292 2.172 2.052 1.992 2.092
2343.708 1.952 1.742 1.772 1.752 1.722 1.812 1.822 1.782 1.732 1.772
2362.998 1.862 1.892 1.832 1.782 1.782 1.722 1.762 1.892 1.772 1.662
2382.288 1.642 1.562 1.572 1.612 1.612 1.712 1.852 1.862 1.722 1.732
2401.578 1.822 1.762 1.812 1.802 1.762 1.782 1.802 1.862 1.842 1.902
2420.867 1.882 1.832 1.792 1.812 1.982 1.922 1.832 1.882 1.942 1.992
2440.157 1.992 2.022 2.112 2.032 1.972 2.042 2.022 2.052 2.132 2.162
2459.447 2.202 2.212 2.232 2.222 2.282 2.412 2.452 2.342 2.232 2.252
2478.737 2.232 2.292 2.462 2.492 2.502 2.402 2.302 2.462 2.532 2.532
2498.026 2.492 2.492 2.572 2.652 2.702 2.672 2.642 2.582 2.582 2.602
2517.316 2.632 2.582 2.572 2.532 2.442 2.482 2.432 2.302 2.192 2.162
2536.606 2.182 2.102 2.002 2.072 2.042 1.902 1.872 1.912 1.822 1.662
2555.896 1.612 1.622 1.682 1.712 1.672 1.592 1.652 1.662 1.542 1.432
2575.186 1.412 1.442 1.422 1.3678 1.2968 1.3324 1.2462 1.1249 1.0701 1.0462
2594.475 1.0051 0.9714 0.9549 0.9138 0.8782 0.8114 0.8165 0.8087 0.7902 0.7751
2613.765 0.7883 0.7714 0.8125 0.7793 0.7433 0.8287 0.8511 0.8081 0.7885 0.6683
2633.055 0.5947 0.7237 0.8076 0.761 0.7844 0.7986 0.8099 0.8093 0.8456 0.781
2652.345 0.7076 0.926 0.8918 0.8528 0.9373 0.9499 0.9211 0.8476 0.9673 1.1109
2671.634 1.1074 1.1005 1.1446 1.0831 0.9925 1.0123 1.0673 1.0892 1.0582 0.941
2690.924 0.893 0.9064 0.9133 0.9615 0.9113 0.9045 1.0481 1.048 0.9594 0.8453
2710.214 0.8265 0.9213 0.8509 0.9284 0.8707 0.7388 0.8159 0.7881 0.8282 0.983
2729.504 0.9886 0.7861 0.7164 0.8938 0.9373 0.7781 0.7841 0.8935 0.8474 0.786
2748.794 0.8258 0.7429 0.633 0.6581 0.6501 0.7062 0.7568 0.769 0.8146 0.772
2768.083 0.7563 0.6904 0.6506 0.6757 0.5666 0.6932 0.7884 0.7368 0.7813 0.8406
2787.373 0.8542 0.7102 0.6163 0.661 0.5811 0.5631 0.5949 0.5998 0.6042 0.5722
2806.663 0.6285 0.8281 0.9092 0.7996 0.7286 0.8675 0.9902 0.8492 0.7858 0.8271
2825.953 0.7884 0.8659 0.9763 0.8918 0.8776 1.0089 0.933 0.848 0.9291 0.9639
2845.242 0.8818 0.8354 0.7987 0.7291 0.7746 0.7869 0.7752 0.7812 0.8039 0.734
2864.532 0.699 0.758 0.7734 0.6616 0.5801 0.741 0.8672 0.9323 0.8414 0.8634
2883.822 0.9462 0.9478 1.0289 1.0682 1.2261 1.3338 1.3235 1.3115 1.335 1.3761
2903.112 1.402 1.562 1.702 1.782 1.782 1.912 2.212 2.432 2.452 2.422
2922.401 2.702 3.002 3.162 3.242 3.452 3.792 4.082 4.392 4.702 5.142
2941.691 5.652 6.152 6.712 7.372 8.012 8.742 9.402 10.132 11.082 11.872
2960.981 12.632 13.692 14.742 15.522 16.442 17.462 18.582 19.932 21.132 22.262
2980.271 23.142 23.622 24.222 24.792 25.152 25.262 24.912 24.312 23.782 23.342
2999.561 22.982 22.502 21.992 21.522 20.632 19.712 18.702 17.472 16.252 14.992
3018.850 13.772 12.692 11.742 10.592 9.412 8.352 7.392 6.622 5.962 5.262
3038.140 4.702 4.372 4.022 3.622 3.242 3.022 2.882 2.612 2.432 2.132
3057.430 1.922 2.032 2.062 1.782 1.672 1.762 1.682 1.462 1.3724 1.402
3076.720 1.302 1.1742 1.2522 1.512 1.462 1.3148 1.2645 1.3239 1.3866 1.1707
3096.009 1.0884 1.1971 1.1009 1.2464 1.402 1.1987 1.0763 0.9822 0.9645 1.0216
3115.299 0.9969 0.9655 1.1408 1.2148 1.1699 1.1461 1.0828 1.0471 0.9361 0.9368
3134.589 1.1363 1.1825 1.0701 1.0187 1.0141 1.0223 1.1397 1.1928 1.1828 1.0257
3153.879 0.8185 0.6595 0.5947 0.8641 0.9361 0.9067 0.9875 0.898 0.8927 0.8472
3173.169 0.7216 0.7803 0.8149 0.6707 0.5888 0.704 0.7909 0.7606 0.7508 0.7329
3192.458 0.49126 0.522 0.709 0.7307 0.8054 0.8214 0.7841 0.7967 0.7046 0.6691
3211.748 0.8487 0.9202 0.7596 0.5685 0.7109 0.7709 0.6043 0.666 0.6859 0.7529
3231.038 0.7048 0.5106 0.5394 0.6212 0.6492 0.6395 0.6856 0.7867 0.7659 0.6153
3250.328 0.6547 0.7513 0.5405 0.3186 0.44611 0.6398 0.7425 0.7434 0.6761 0.6713
3269.617 0.7157 0.7065 0.7397 0.7255 0.7295 0.8236 0.7888 0.7922 0.7722 0.7906
3288.907 0.7895 0.871 0.9045 0.8485 0.7884 0.7119 0.912 1.114 1.038 0.8643
3308.197 0.7592 0.8073 0.9193 0.8719 0.859 0.9534 0.948 0.9107 0.8488 0.7898
3327.487 0.7573 0.5861 0.6292 0.7742 0.9091 0.9311 0.7285 0.7594 0.8033 0.7364
3346.777 0.7279 0.5832 0.5477 0.6286 0.5417 0.6257 0.716 0.6742 0.6514 0.7285
3366.066 0.6475 0.47953 0.5656 0.6079 0.3639 0.3294 0.3818 0.3638 0.48246 0.44163
3385.356 0.2985 0.229 0.3005 0.3729 0.44772 0.44373 0.3084 0.174 0.221 0.3791
3404.646 0.355 0.5089 0.5566 0.5583 0.5789 0.48061 0.559 0.5269 0.4548 0.3218
3423.936 0.223 0.237 0.152 0.168 0.207 0.271 0.3614 0.169 0.001 0
3443.225 0.154 0.28 0.2923 0.3271 0.3672 0.48963 0.47512 0.48349 0.5562 0.5632
3462.515 0.40886 0.3514 0.391285 0.324 0.3181 0.553 0.7834 0.7124 0.5755 0.42856
3481.805 0.5694 0.778 0.6779 0.7029 0.8964 0.9858 0.9066 0.7549 0.6664 0.6897
3501.095 0.8621 1.0621 1.2011 1.029 0.9773 1.2867 1.592 1.752 1.842 1.952
3520.385 2.222 2.472 2.822 3.022 3.192 3.702 4.322 5.012 5.912 7.012
3539.674 8.302 10.142 12.582 15.932 20.382 26.542 34.902 45.552 58.652 74.242
3558.964 91.432 108.702 124.132 135.872 143.042 145.932 147.462 153.272 167.702 187.742
3578.254 194.632 178.472 161.812 155.992 156.172 158.122 155.012 144.622 128.952 110.782
3597.544 92.172 74.462 59.182 47.932 40.322 35.162 31.452 27.952 24.872 22.312
3616.833 19.842 17.482 15.352 13.622 12.122 10.892 9.772 8.602 7.562 6.872
3636.123 6.432 5.822 5.182 4.732 4.372 4.182 3.882 3.572 3.342 2.972
3655.413 2.762 2.602 2.402 2.212 2.162 2.302 2.202 2.172 2.012 1.722
3674.703 1.492 1.2962 1.402 1.472 1.3647 1.1318 1.079 1.0247 0.9027 0.9084
3693.993 0.8402 1.0308 1.0933 0.818 0.8339 0.8951 0.8524 0.9725 0.9036 0.8349
3713.282 0.9553 0.8132 0.6725 0.7992 0.876 0.8696 0.8866 0.6903 0.38875 0.4122
3732.572 0.6107 0.6985 0.6025 0.5384 0.48775 0.5941 0.7524 0.5266 0.3265 0.3691
3751.862 0.3096 0.239 0.44905 0.38674 0.239 0.3 0.268 0.25 0.182 0.155
3771.152 0.249 0.156 0.271 0.46127 0.3565 0.261 0.2957 0.147 0.057 0.15
3790.441 0.237 0.366 0.3313 0.146 0.3025 0.48741 0.567 0.6821 0.679 0.7746
3809.731 0.607 0.38517 0.48565 0.6168 0.649 0.7856 0.9887 0.8194 0.6479 0.6468
3829.021 0.6252 0.8071 0.7597 0.625 0.5585 0.46521 0.5091 0.41502 0.3276 0.43127
3848.311 0.5901 0.7414 0.9074 0.8884 0.6015 0.6067 0.7031 0.595 0.6565 0.6266
3867.601 0.6582 0.6992 0.45458 0.3536 0.42368 0.6144 0.7136 0.575 0.5899 0.5887
3886.890 0.6292 0.6948 0.4883 0.45463 0.6576 0.7026 0.6467 0.6357 0.612 0.38409
3906.180 0.3104 0.5579 0.5492 0.47434 0.39879 0.3374 0.275 0.251 0.46392 0.5718
3925.470 0.233 0.119 0.3397 0.3598 0.285 0.154 0.3339 0.392881 0.255 0.3571
3944.760 0.5161 0.399457 0.206 0.29 0.136 0.228 0.3338 0.16 0.189 0.225
3964.049 0.288 0.219 0.257 0.3096 0.158 0.223 0.358 0.263 0.063 0.03
3983.339 0.204 0.266 0.3681 0.42383 0.43966 0.46111 0.3746 0.243 0.38672 0.5219
##END=
