##TITLE=1,2-DICHLORO-2-FLUORO PROPANE
##JCAMP-DX=4.24
##DATA TYPE=INFRARED SPECTRUM
##CLASS=COBLENTZ
##ORIGIN=DOW CHEMICAL COMPANY
##OWNER=COBLENTZ SOCIETY
Collection (C) 2018 copyright by the U.S. Secretary of Commerce
on behalf of the United States of America. All rights reserved.
##DATE=Not specified, most likely prior to 1970
##NAMES=1,2-dichloro-2-fluoropropane
##CAS REGISTRY NO=420-97-3
##MOLFORM=C3 H5 Cl2 F
##SOURCE REFERENCE=COBLENTZ NO. 1930
##$NIST SOURCE=COBLENTZ
##$NIST IMAGE=cob1930
##SPECTROMETER/DATA SYSTEM=Not specified, most likely a prism, grating, or hybrid spectrometer.
##STATE=SOLUTION (10% CCl4 FOR 5000-1330, 10% CS2 FOR 1330-625 CM^-^1)
##PATH LENGTH=0.0110 CM, 0.0111 CM
$$SPECTRAL CONTAMINATION DUE TO CCl4 AROUND 1550 CM^-^1
##SAMPLING PROCEDURE=TRANSMISSION
##RESOLUTION=4
##DATA PROCESSING=DIGITIZED BY NIST FROM HARD COPY
##XUNITS=MICROMETERS
##YUNITS=TRANSMITTANCE
##XFACTOR=1.000000
##YFACTOR=1
##DELTAX=000.006859
##FIRSTX=2.034
##LASTX=15.9174
##FIRSTY=0.902
##MAXX=15.9174
##MINX=2.034
##MAXY=0.959
##MINY=0.071
##NPOINTS=2025
##XYDATA=(X++(Y..Y))
2.034000 0.9020 0.9020 0.9020 0.9020 0.9020
2.068314 0.9020 0.9040 0.9070 0.9070 0.9070
2.103000 0.9070 0.9070 0.9070 0.9070 0.9070
2.137314 0.9070 0.9070 0.9070 0.9070 0.9070
2.171000 0.9070 0.9070 0.9060 0.9010 0.8970
2.205314 0.8920 0.8900 0.8890 0.8890 0.8890
2.240000 0.8900 0.8920 0.8950 0.8970 0.8990
2.274314 0.8990 0.8990 0.8990 0.8990 0.8990
2.309000 0.8990 0.8990 0.9010 0.9010 0.9020
2.343314 0.9020 0.9040 0.9040 0.9060 0.9060
2.377000 0.9070 0.9070 0.9070 0.9070 0.9070
2.411314 0.9070 0.9070 0.9070 0.9070 0.9070
2.446000 0.9070 0.9090 0.9090 0.9110 0.9110
2.480314 0.9110 0.9120 0.9120 0.9120 0.9120
2.514000 0.9120 0.9120 0.9120 0.9120 0.9140
2.548314 0.9140 0.9140 0.9140 0.9140 0.9120
2.583000 0.9120 0.9140 0.9140 0.9140 0.9140
2.617314 0.9140 0.9140 0.9140 0.9140 0.9140
2.652000 0.9140 0.9140 0.9160 0.9180 0.9180
2.686314 0.9190 0.9230 0.9260 0.9260 0.9280
2.720000 0.9280 0.9280 0.9280 0.9300 0.9300
2.754314 0.9300 0.9280 0.9280 0.9280 0.9260
2.789000 0.9260 0.9240 0.9240 0.9240 0.9230
2.823314 0.9230 0.9230 0.9230 0.9230 0.9230
2.857000 0.9230 0.9230 0.9210 0.9190 0.9160
2.891314 0.9120 0.9090 0.9020 0.9020 0.9010
2.926000 0.9010 0.9010 0.9010 0.9010 0.9020
2.960314 0.9020 0.9020 0.9020 0.9040 0.9060
2.995000 0.9070 0.9090 0.9090 0.9090 0.9090
3.029314 0.9090 0.9090 0.9090 0.9090 0.9110
3.063000 0.9110 0.9110 0.9110 0.9120 0.9120
3.097314 0.9120 0.9140 0.9160 0.9160 0.9160
3.132000 0.9180 0.9190 0.9210 0.9260 0.9280
3.166314 0.9280 0.9280 0.9280 0.9280 0.9280
3.200000 0.9280 0.9280 0.9260 0.9260 0.9260
3.234314 0.9260 0.9240 0.9230 0.9210 0.9210
3.269000 0.9190 0.9140 0.8970 0.8800 0.8630
3.303314 0.8530 0.8320 0.8220 0.8190 0.8190
3.338000 0.8190 0.8190 0.8200 0.8200 0.8220
3.372314 0.8320 0.8360 0.8440 0.8540 0.8750
3.406000 0.8940 0.9010 0.9090 0.9120 0.9120
3.440314 0.9120 0.9120 0.9120 0.9110 0.9090
3.475000 0.9090 0.9090 0.9090 0.9090 0.9110
3.509314 0.9120 0.9160 0.9190 0.9240 0.9300
3.543000 0.9330 0.9350 0.9350 0.9350 0.9360
3.577314 0.9380 0.9380 0.9380 0.9380 0.9380
3.612000 0.9380 0.9380 0.9380 0.9380 0.9380
3.646314 0.9380 0.9380 0.9380 0.9360 0.9360
3.681000 0.9360 0.9360 0.9360 0.9360 0.9360
3.715314 0.9360 0.9360 0.9360 0.9380 0.9380
3.749000 0.9380 0.9380 0.9380 0.9380 0.9380
3.783314 0.9380 0.9380 0.9400 0.9400 0.9410
3.818000 0.9410 0.9430 0.9430 0.9450 0.9450
3.852314 0.9450 0.9450 0.9470 0.9470 0.9470
3.886000 0.9480 0.9500 0.9500 0.9500 0.9500
3.920314 0.9500 0.9500 0.9500 0.9500 0.9480
3.955000 0.9480 0.9480 0.9480 0.9480 0.9480
3.989314 0.9480 0.9480 0.9470 0.9470 0.9470
4.024000 0.9470 0.9470 0.9470 0.9470 0.9470
4.058314 0.9470 0.9480 0.9480 0.9480 0.9480
4.092000 0.9480 0.9500 0.9500 0.9500 0.9500
4.126314 0.9500 0.9500 0.9500 0.9500 0.9500
4.161000 0.9500 0.9500 0.9500 0.9500 0.9500
4.195314 0.9500 0.9500 0.9500 0.9500 0.9500
4.229000 0.9500 0.9500 0.9500 0.9500 0.9500
4.263314 0.9480 0.9480 0.9480 0.9470 0.9430
4.298000 0.9400 0.9380 0.9360 0.9310 0.9300
4.332314 0.9280 0.9280 0.9280 0.9260 0.9260
4.366000 0.9260 0.9280 0.9280 0.9300 0.9300
4.400314 0.9310 0.9360 0.9400 0.9410 0.9430
4.435000 0.9450 0.9450 0.9450 0.9470 0.9470
4.469314 0.9470 0.9480 0.9480 0.9480 0.9480
4.504000 0.9480 0.9480 0.9480 0.9500 0.9500
4.538314 0.9500 0.9500 0.9500 0.9500 0.9520
4.572000 0.9520 0.9520 0.9520 0.9520 0.9520
4.606314 0.9520 0.9520 0.9520 0.9520 0.9520
4.641000 0.9520 0.9520 0.9520 0.9500 0.9500
4.675314 0.9500 0.9500 0.9500 0.9500 0.9500
4.709000 0.9500 0.9500 0.9500 0.9500 0.9500
4.743314 0.9500 0.9550 0.9550 0.9550 0.9570
4.778000 0.9570 0.9570 0.9590 0.9590 0.9590
4.812314 0.9590 0.9590 0.9590 0.9590 0.9590
4.847000 0.9570 0.9550 0.9500 0.9500 0.9500
4.881314 0.9500 0.9500 0.9500 0.9500 0.9500
4.915000 0.9500 0.9500 0.9500 0.9500 0.9500
4.949314 0.9500 0.9500 0.9500 0.9520 0.9500
4.984000 0.9500 0.9500 0.9500 0.9500 0.9500
5.018314 0.9500 0.9500 0.9500 0.9500 0.9500
5.052000 0.9500 0.9500 0.9500 0.9500 0.9500
5.086314 0.9500 0.9500 0.9500 0.9500 0.9500
5.121000 0.9500 0.9500 0.9500 0.9500 0.9500
5.155314 0.9500 0.9500 0.9500 0.9500 0.9500
5.190000 0.9500 0.9500 0.9500 0.9500 0.9500
5.224314 0.9500 0.9500 0.9500 0.9500 0.9500
5.258000 0.9500 0.9500 0.9500 0.9500 0.9500
5.292314 0.9500 0.9500 0.9500 0.9480 0.9480
5.327000 0.9480 0.9480 0.9480 0.9480 0.9480
5.361314 0.9480 0.9480 0.9480 0.9480 0.9470
5.395000 0.9470 0.9470 0.9470 0.9450 0.9430
5.429314 0.9430 0.9430 0.9430 0.9410 0.9410
5.464000 0.9400 0.9380 0.9350 0.9330 0.9310
5.498314 0.9300 0.9280 0.9280 0.9240 0.9240
5.533000 0.9210 0.9210 0.9210 0.9210 0.9210
5.567314 0.9210 0.9210 0.9210 0.9230 0.9230
5.601000 0.9280 0.9310 0.9310 0.9310 0.9330
5.635314 0.9330 0.9330 0.9350 0.9350 0.9350
5.670000 0.9360 0.9360 0.9380 0.9380 0.9380
5.704314 0.9380 0.9380 0.9380 0.9380 0.9380
5.738000 0.9380 0.9380 0.9380 0.9380 0.9380
5.772314 0.9380 0.9380 0.9380 0.9380 0.9380
5.807000 0.9380 0.9380 0.9380 0.9380 0.9380
5.841314 0.9380 0.9380 0.9380 0.9380 0.9380
5.876000 0.9380 0.9380 0.9380 0.9380 0.9380
5.910314 0.9360 0.9360 0.9360 0.9360 0.9350
5.944000 0.9350 0.9310 0.9300 0.9300 0.9280
5.978314 0.9280 0.9280 0.9260 0.9240 0.9210
6.013000 0.9180 0.9110 0.9040 0.8940 0.8820
6.047314 0.8650 0.8440 0.8340 0.8200 0.8130
6.081000 0.8100 0.8030 0.8020 0.7980 0.7900
6.115314 0.7900 0.7880 0.7880 0.7930 0.8050
6.150000 0.8130 0.8290 0.8370 0.8480 0.8490
6.184314 0.8510 0.8510 0.8490 0.8430 0.8320
6.219000 0.8220 0.8100 0.7960 0.7840 0.7690
6.253314 0.7550 0.7400 0.7230 0.7130 0.7030
6.287000 0.6940 0.6870 0.6820 0.6790 0.6740
6.321314 0.6720 0.6670 0.6620 0.6550 0.6510
6.356000 0.6460 0.6410 0.6360 0.6290 0.6210
6.390314 0.6100 0.6020 0.5900 0.5800 0.5660
6.424000 0.5540 0.5420 0.5350 0.5300 0.5290
6.458314 0.5290 0.5300 0.5340 0.5390 0.5490
6.493000 0.5630 0.5800 0.5950 0.6090 0.6240
6.527314 0.6310 0.6390 0.6500 0.6550 0.6650
6.561000 0.6700 0.6800 0.6870 0.6960 0.6990
6.595314 0.7110 0.7200 0.7320 0.7420 0.7540
6.630000 0.7590 0.7690 0.7840 0.7960 0.8050
6.664314 0.8190 0.8270 0.8320 0.8370 0.8410
6.699000 0.8480 0.8490 0.8530 0.8600 0.8650
6.733314 0.8680 0.8700 0.8720 0.8730 0.8730
6.767000 0.8730 0.8730 0.8730 0.8730 0.8720
6.801314 0.8700 0.8660 0.8610 0.8560 0.8460
6.836000 0.8310 0.8080 0.7900 0.7690 0.7400
6.870314 0.7090 0.6910 0.6680 0.6630 0.6630
6.904000 0.6670 0.6750 0.6840 0.6940 0.6990
6.938314 0.7030 0.7030 0.7010 0.6800 0.6600
6.973000 0.6310 0.6040 0.5850 0.5800 0.5780
7.007314 0.5800 0.6050 0.6220 0.6360 0.6790
7.042000 0.7380 0.7860 0.8080 0.8310 0.8390
7.076314 0.8430 0.8480 0.8480 0.8480 0.8480
7.110000 0.8480 0.8430 0.8410 0.8370 0.8250
7.144314 0.8080 0.7950 0.7740 0.7450 0.7060
7.179000 0.6650 0.6260 0.5760 0.5130 0.3850
7.213314 0.3440 0.3430 0.3460 0.3780 0.3950
7.247000 0.4060 0.5400 0.6700 0.7610 0.7980
7.281314 0.8240 0.8340 0.8430 0.8460 0.8510
7.316000 0.8540 0.8600 0.8650 0.8660 0.8680
7.350314 0.8680 0.8680 0.8700 0.8700 0.8720
7.385000 0.8720 0.8720 0.8730 0.8730 0.8750
7.419314 0.8750 0.8750 0.8770 0.8770 0.8770
7.453000 0.8780 0.8780 0.8780 0.8800 0.8800
7.487314 0.8800 0.8800 0.8820 0.8800 0.8800
7.522000 0.8800 0.8800 0.8800 0.8800 0.8800
7.556314 0.8800 0.8800 0.8800 0.8800 0.8780
7.590000 0.8780 0.8750 0.8730 0.8700 0.8660
7.624314 0.8610 0.8560 0.8490 0.8430 0.8390
7.659000 0.8320 0.8310 0.8270 0.8240 0.8200
7.693314 0.8170 0.8100 0.8020 0.7840 0.7710
7.728000 0.7490 0.7210 0.6890 0.6670 0.6510
7.762314 0.6310 0.6290 0.6290 0.6310 0.6380
7.796000 0.6510 0.6770 0.7130 0.7400 0.7540
7.830314 0.7610 0.7670 0.7670 0.7620 0.7540
7.865000 0.7380 0.7160 0.6910 0.6670 0.6360
7.899314 0.6000 0.5660 0.5420 0.5110 0.4890
7.933000 0.4770 0.4770 0.4810 0.4960 0.5100
7.967314 0.5350 0.5610 0.5710 0.5900 0.6160
8.002000 0.6450 0.6630 0.6720 0.6720 0.6720
8.036314 0.6740 0.6740 0.6740 0.6750 0.6770
8.071000 0.6800 0.6860 0.6860 0.6870 0.6860
8.105314 0.6800 0.6700 0.6580 0.6390 0.6170
8.139000 0.5920 0.5630 0.5350 0.5100 0.4860
8.173314 0.4650 0.4500 0.4450 0.4160 0.3970
8.208000 0.3730 0.3560 0.3360 0.3310 0.3150
8.242314 0.3070 0.3020 0.3020 0.3050 0.3080
8.276000 0.3190 0.3290 0.3410 0.3540 0.3700
8.310314 0.3870 0.4060 0.4260 0.4480 0.4700
8.345000 0.4940 0.5180 0.5390 0.5590 0.5870
8.379314 0.6120 0.6360 0.6560 0.6770 0.6940
8.414000 0.7090 0.7230 0.7320 0.7440 0.7540
8.448314 0.7610 0.7690 0.7780 0.7810 0.7880
8.482000 0.7900 0.7980 0.8000 0.8020 0.8080
8.516314 0.8120 0.8170 0.8170 0.8200 0.8240
8.551000 0.8250 0.8270 0.8270 0.8270 0.8270
8.585314 0.8270 0.8270 0.8270 0.8270 0.8270
8.619000 0.8270 0.8270 0.8270 0.8270 0.8270
8.653314 0.8270 0.8270 0.8270 0.8250 0.8250
8.688000 0.8250 0.8220 0.8190 0.8170 0.8130
8.722314 0.8100 0.8030 0.8000 0.7980 0.7950
8.756000 0.7860 0.7790 0.7690 0.7540 0.7450
8.790314 0.7400 0.7230 0.6970 0.6700 0.6410
8.825000 0.6210 0.6100 0.5930 0.5750 0.5640
8.859314 0.5560 0.5510 0.5510 0.5510 0.5540
8.894000 0.5560 0.5540 0.5510 0.5460 0.5390
8.928314 0.5250 0.5060 0.4840 0.4600 0.4360
8.962000 0.4110 0.3870 0.3680 0.3510 0.3410
8.996314 0.3360 0.3370 0.3510 0.3630 0.3700
9.031000 0.3770 0.3820 0.3890 0.3950 0.3970
9.065314 0.3990 0.3890 0.3650 0.3340 0.2960
9.099000 0.2610 0.2260 0.1910 0.1670 0.1460
9.133314 0.1270 0.1120 0.1090 0.1090 0.1100
9.168000 0.1140 0.1210 0.1310 0.1460 0.1670
9.202314 0.1790 0.2010 0.2250 0.2320 0.2370
9.237000 0.2440 0.2450 0.2440 0.2370 0.2260
9.271314 0.2010 0.1800 0.1560 0.1360 0.1260
9.305000 0.1120 0.1100 0.1100 0.1120 0.1260
9.339314 0.1380 0.1650 0.2060 0.2550 0.3100
9.374000 0.3650 0.4090 0.4520 0.4840 0.5270
9.408314 0.5760 0.6170 0.6460 0.6500 0.6680
9.442000 0.6840 0.6940 0.7130 0.7250 0.7350
9.476314 0.7450 0.7540 0.7640 0.7740 0.7790
9.511000 0.7880 0.7950 0.7980 0.8030 0.8130
9.545314 0.8200 0.8270 0.8290 0.8370 0.8390
9.580000 0.8410 0.8430 0.8440 0.8460 0.8490
9.614314 0.8510 0.8530 0.8540 0.8560 0.8580
9.648000 0.8600 0.8610 0.8630 0.8650 0.8660
9.682314 0.8660 0.8680 0.8680 0.8680 0.8700
9.717000 0.8700 0.8700 0.8720 0.8720 0.8730
9.751314 0.8770 0.8770 0.8770 0.8770 0.8780
9.785000 0.8780 0.8780 0.8800 0.8800 0.8800
9.819314 0.8800 0.8800 0.8820 0.8820 0.8830
9.854000 0.8870 0.8870 0.8890 0.8890 0.8900
9.888314 0.8920 0.8920 0.8950 0.8950 0.8950
9.923000 0.8970 0.8970 0.8970 0.8990 0.8990
9.957314 0.8990 0.8990 0.9010 0.9010 0.9010
9.991000 0.9010 0.9010 0.8990 0.8990 0.8990
10.025314 0.8990 0.8990 0.8970 0.8970 0.8950
10.060000 0.8940 0.8940 0.8920 0.8900 0.8900
10.094314 0.8870 0.8850 0.8800 0.8780 0.8770
10.128000 0.8750 0.8720 0.8720 0.8700 0.8680
10.162314 0.8650 0.8650 0.8610 0.8600 0.8580
10.197000 0.8510 0.8490 0.8460 0.8410 0.8340
10.231314 0.8290 0.8220 0.8170 0.8080 0.7980
10.266000 0.7930 0.7810 0.7640 0.7540 0.7380
10.300314 0.7230 0.6840 0.6630 0.6380 0.6070
10.334000 0.5750 0.5400 0.5080 0.4770 0.4520
10.368314 0.4300 0.4140 0.4010 0.3990 0.3990
10.403000 0.3990 0.4020 0.4530 0.4790 0.5060
10.437314 0.5320 0.5510 0.5680 0.5900 0.6190
10.471000 0.6290 0.6430 0.6500 0.6530 0.6580
10.505314 0.6600 0.6600 0.6580 0.6510 0.6410
10.540000 0.6260 0.6170 0.6100 0.6070 0.6040
10.574314 0.6020 0.6020 0.6020 0.6050 0.6240
10.609000 0.6410 0.6560 0.6700 0.6820 0.6960
10.643314 0.7060 0.7160 0.7250 0.7370 0.7470
10.677000 0.7520 0.7590 0.7670 0.7690 0.7710
10.711314 0.7740 0.7760 0.7760 0.7760 0.7740
10.746000 0.7730 0.7710 0.7670 0.7610 0.7550
10.780314 0.7500 0.7490 0.7440 0.7420 0.7380
10.814000 0.7350 0.7300 0.7280 0.7250 0.7230
10.848314 0.7210 0.7200 0.7160 0.7110 0.7030
10.883000 0.6970 0.6920 0.6840 0.6770 0.6720
10.917314 0.6700 0.6680 0.6680 0.6700 0.6740
10.951000 0.6840 0.6940 0.7040 0.7160 0.7280
10.985314 0.7400 0.7490 0.7570 0.7620 0.7660
11.020000 0.7730 0.7740 0.7740 0.7730 0.7730
11.054314 0.7690 0.7640 0.7540 0.7440 0.7320
11.089000 0.7180 0.6990 0.6860 0.6680 0.6480
11.123314 0.6260 0.6040 0.5800 0.5540 0.5320
11.157000 0.5100 0.4890 0.4760 0.4650 0.4550
11.191314 0.4450 0.4410 0.4330 0.4310 0.4310
11.226000 0.4310 0.4310 0.4400 0.4570 0.4790
11.260314 0.5010 0.5290 0.5540 0.5810 0.6050
11.294000 0.6290 0.6480 0.6560 0.6700 0.6860
11.328314 0.7030 0.7080 0.7130 0.7180 0.7230
11.363000 0.7260 0.7280 0.7300 0.7320 0.7320
11.397314 0.7330 0.7350 0.7370 0.7370 0.7370
11.432000 0.7350 0.7350 0.7330 0.7320 0.7300
11.466314 0.7280 0.7280 0.7260 0.7250 0.7210
11.500000 0.7200 0.7180 0.7180 0.7160 0.7110
11.534314 0.7090 0.7080 0.7040 0.7010 0.6970
11.569000 0.6940 0.6910 0.6870 0.6840 0.6800
11.603314 0.6750 0.6680 0.6560 0.6530 0.6480
11.637000 0.6410 0.6360 0.6290 0.6240 0.6160
11.671314 0.6090 0.6000 0.5920 0.5810 0.5690
11.706000 0.5580 0.5460 0.5300 0.5180 0.5010
11.740314 0.4820 0.4620 0.4400 0.4180 0.3950
11.775000 0.3750 0.3540 0.3360 0.3190 0.3050
11.809314 0.2930 0.2880 0.2840 0.2840 0.2860
11.843000 0.2880 0.2900 0.2910 0.2910 0.2900
11.877314 0.2840 0.2710 0.2610 0.2420 0.2260
11.912000 0.2130 0.2060 0.1970 0.1910 0.1890
11.946314 0.1910 0.1910 0.2060 0.2160 0.2280
11.980000 0.2420 0.2610 0.2860 0.3170 0.3560
12.014314 0.4040 0.4380 0.4670 0.4930 0.5200
12.049000 0.5520 0.5830 0.5970 0.6170 0.6380
12.083314 0.6560 0.6740 0.6870 0.7010 0.7130
12.118000 0.7230 0.7350 0.7450 0.7490 0.7570
12.152314 0.7610 0.7690 0.7730 0.7780 0.7810
12.186000 0.7840 0.7880 0.7930 0.7960 0.8020
12.220314 0.8050 0.8080 0.8100 0.8120 0.8130
12.255000 0.8150 0.8170 0.8170 0.8190 0.8190
12.289314 0.8190 0.8190 0.8200 0.8200 0.8200
12.323000 0.8220 0.8220 0.8220 0.8220 0.8220
12.357314 0.8220 0.8220 0.8220 0.8220 0.8220
12.392000 0.8220 0.8220 0.8220 0.8200 0.8200
12.426314 0.8200 0.8200 0.8200 0.8190 0.8170
12.461000 0.8150 0.8150 0.8130 0.8100 0.8070
12.495314 0.8050 0.8020 0.7980 0.7980 0.7960
12.529000 0.7910 0.7860 0.7810 0.7780 0.7730
12.563314 0.7660 0.7610 0.7550 0.7490 0.7470
12.598000 0.7400 0.7300 0.7180 0.7060 0.6920
12.632314 0.6820 0.6740 0.6670 0.6550 0.6450
12.666000 0.6340 0.6270 0.6210 0.6160 0.6100
12.700314 0.6070 0.6050 0.6050 0.6070 0.6090
12.735000 0.6120 0.6170 0.6220 0.6270 0.6340
12.769314 0.6410 0.6480 0.6560 0.6630 0.6720
12.804000 0.6790 0.6840 0.6910 0.6970 0.7010
12.838314 0.7060 0.7090 0.7150 0.7180 0.7200
12.872000 0.7200 0.7200 0.7200 0.7200 0.7180
12.906314 0.7160 0.7150 0.7090 0.7060 0.7030
12.941000 0.6970 0.6940 0.6890 0.6870 0.6860
12.975314 0.6860 0.6840 0.6840 0.6840 0.6840
13.009000 0.6860 0.6860 0.6860 0.6860 0.6870
13.043314 0.6870 0.6890 0.6910 0.6910 0.6890
13.078000 0.6870 0.6820 0.6770 0.6700 0.6630
13.112314 0.6530 0.6450 0.6430 0.6360 0.6270
13.146000 0.6210 0.6100 0.6020 0.5950 0.5870
13.180314 0.5800 0.5730 0.5710 0.5630 0.5540
13.215000 0.5440 0.5340 0.5220 0.5080 0.4960
13.249314 0.4810 0.4640 0.4450 0.4240 0.4020
13.284000 0.3770 0.3460 0.3240 0.2960 0.2640
13.318314 0.2400 0.2180 0.1970 0.1800 0.1630
13.352000 0.1460 0.1330 0.1210 0.1090 0.1050
13.386314 0.1040 0.1020 0.1040 0.1090 0.1160
13.421000 0.1260 0.1360 0.1450 0.1600 0.1800
13.455314 0.2060 0.2320 0.2570 0.2840 0.3100
13.489000 0.3340 0.3600 0.3850 0.4090 0.4350
13.523314 0.4590 0.4890 0.5100 0.5290 0.5440
13.558000 0.5610 0.5830 0.5920 0.6020 0.6140
13.592314 0.6270 0.6410 0.6530 0.6620 0.6700
13.627000 0.6740 0.6790 0.6860 0.6870 0.6920
13.661314 0.6970 0.6990 0.7010 0.7030 0.7040
13.695000 0.7040 0.7060 0.7080 0.7080 0.7090
13.729314 0.7090 0.7110 0.7130 0.7150 0.7160
13.764000 0.7160 0.7180 0.7180 0.7200 0.7210
13.798314 0.7210 0.7210 0.7210 0.7210 0.7210
13.832000 0.7210 0.7210 0.7210 0.7210 0.7210
13.866314 0.7210 0.7210 0.7200 0.7200 0.7180
13.901000 0.7160 0.7160 0.7160 0.7150 0.7130
13.935314 0.7110 0.7110 0.7090 0.7080 0.7080
13.970000 0.7060 0.7060 0.7040 0.7030 0.7030
14.004314 0.6990 0.6970 0.6940 0.6920 0.6920
14.038000 0.6890 0.6890 0.6860 0.6840 0.6820
14.072314 0.6790 0.6770 0.6750 0.6740 0.6720
14.107000 0.6700 0.6680 0.6670 0.6650 0.6630
14.141314 0.6620 0.6580 0.6560 0.6550 0.6480
14.175000 0.6460 0.6450 0.6390 0.6380 0.6310
14.209314 0.6290 0.6210 0.6120 0.6070 0.6040
14.244000 0.5970 0.5930 0.5880 0.5830 0.5780
14.278314 0.5710 0.5630 0.5560 0.5510 0.5420
14.313000 0.5350 0.5290 0.5200 0.5130 0.5060
14.347314 0.5000 0.4930 0.4860 0.4790 0.4740
14.381000 0.4670 0.4600 0.4530 0.4470 0.4400
14.415314 0.4330 0.4260 0.4190 0.4110 0.4040
14.450000 0.3950 0.3870 0.3800 0.3720 0.3610
14.484314 0.3530 0.3430 0.3290 0.3150 0.3050
14.518000 0.2930 0.2810 0.2690 0.2570 0.2440
14.552314 0.2280 0.2150 0.2010 0.1870 0.1750
14.587000 0.1630 0.1530 0.1410 0.1310 0.1220
14.621314 0.1120 0.1020 0.0930 0.0830 0.0780
14.656000 0.0750 0.0730 0.0710 0.0710 0.0710
14.690314 0.0730 0.0750 0.0780 0.0800 0.0850
14.724000 0.0900 0.0950 0.1020 0.1100 0.1190
14.758314 0.1270 0.1380 0.1500 0.1620 0.1740
14.793000 0.1870 0.1990 0.2180 0.2350 0.2500
14.827314 0.2620 0.2740 0.2860 0.2950 0.3050
14.861000 0.3130 0.3200 0.3270 0.3340 0.3430
14.895314 0.3490 0.3560 0.3630 0.3700 0.3770
14.930000 0.3830 0.3890 0.3950 0.4010 0.4060
14.964314 0.4090 0.4160 0.4210 0.4260 0.4300
14.999000 0.4350 0.4400 0.4450 0.4480 0.4520
15.033314 0.4550 0.4570 0.4600 0.4620 0.4650
15.067000 0.4670 0.4670 0.4690 0.4690 0.4700
15.101314 0.4700 0.4720 0.4740 0.4740 0.4740
15.136000 0.4740 0.4760 0.4760 0.4760 0.4760
15.170314 0.4760 0.4770 0.4770 0.4770 0.4770
15.204000 0.4770 0.4790 0.4770 0.4770 0.4770
15.238314 0.4770 0.4770 0.4770 0.4770 0.4770
15.273000 0.4770 0.4770 0.4770 0.4770 0.4770
15.307314 0.4770 0.4760 0.4760 0.4760 0.4760
15.341000 0.4760 0.4760 0.4760 0.4760 0.4760
15.375314 0.4760 0.4760 0.4770 0.4760 0.4760
15.410000 0.4760 0.4760 0.4760 0.4760 0.4720
15.444314 0.4700 0.4690 0.4690 0.4670 0.4670
15.479000 0.4650 0.4620 0.4600 0.4590 0.4550
15.513314 0.4550 0.4530 0.4520 0.4520 0.4500
15.547000 0.4480 0.4470 0.4470 0.4450 0.4450
15.581314 0.4410 0.4400 0.4380 0.4380 0.4380
15.616000 0.4360 0.4360 0.4350 0.4350 0.4330
15.650314 0.4310 0.4310 0.4300 0.4300 0.4300
15.684000 0.4300 0.4300 0.4300 0.4300 0.4300
15.718314 0.4300 0.4300 0.4300 0.4300 0.4300
15.753000 0.4300 0.4300 0.4300 0.4300 0.4300
15.787314 0.4300 0.4280 0.4280 0.4280 0.4280
15.822000 0.4280 0.4300 0.4300 0.4300 0.4300
15.856314 0.4300 0.4300 0.4300 0.4300 0.4300
15.890000 0.4310 0.4310 0.4300 0.4300 0.4300
##END=
