##TITLE=1,1-DICHLORO-2-FLUORO PROPENE-1
##JCAMP-DX=4.24
##DATA TYPE=INFRARED SPECTRUM
##CLASS=COBLENTZ
##ORIGIN=DOW CHEMICAL COMPANY
##OWNER=COBLENTZ SOCIETY
Collection (C) 2018 copyright by the U.S. Secretary of Commerce
on behalf of the United States of America. All rights reserved.
##DATE=Not specified, most likely prior to 1970
##NAMES=1,1-dichloro-2-fluoro-1-propene
##CAS REGISTRY NO=430-95-5
##MOLFORM=C3 H3 Cl2 F
##SOURCE REFERENCE=COBLENTZ NO. 1936
##$NIST SOURCE=COBLENTZ
##$NIST IMAGE=cob1936
##SPECTROMETER/DATA SYSTEM=Not specified, most likely a prism, grating, or hybrid spectrometer.
##STATE=SOLUTION (10% CCl4 FOR 5000-1330, 10% CS2 FOR 1330-625 CM^-^1)
##PATH LENGTH=0.0110 CM, 0.0111 CM
$$SPECTRAL CONTAMINATION DUE TO CCl4 AROUND 1550 CM^-^1
##SAMPLING PROCEDURE=TRANSMISSION
##RESOLUTION=4
##DATA PROCESSING=DIGITIZED BY NIST FROM HARD COPY
##XUNITS=MICROMETERS
##YUNITS=TRANSMITTANCE
##XFACTOR=1.000000
##YFACTOR=1
##DELTAX=000.006859
##FIRSTX=2.034
##LASTX=15.9106
##FIRSTY=0.888
##MAXX=15.9106
##MINX=2.034
##MAXY=0.948
##MINY=0.012
##NPOINTS=2024
##XYDATA=(X++(Y..Y))
2.034000 0.8880 0.8880 0.8880 0.8880 0.8880
2.068314 0.8900 0.8900 0.8900 0.8900 0.8900
2.103000 0.8900 0.8900 0.8910 0.8910 0.8910
2.137314 0.8930 0.8950 0.8950 0.8970 0.8970
2.171000 0.8950 0.8930 0.8910 0.8910 0.8910
2.205314 0.8910 0.8900 0.8880 0.8880 0.8880
2.240000 0.8880 0.8880 0.8880 0.8880 0.8880
2.274314 0.8900 0.8910 0.8910 0.8930 0.8930
2.309000 0.8950 0.8970 0.8980 0.8980 0.8980
2.343314 0.8980 0.8980 0.9000 0.9000 0.9000
2.377000 0.9000 0.9020 0.9020 0.9020 0.9050
2.411314 0.9050 0.9050 0.9050 0.9070 0.9070
2.446000 0.9070 0.9070 0.9070 0.9070 0.9070
2.480314 0.9070 0.9070 0.9070 0.9090 0.9090
2.514000 0.9090 0.9090 0.9100 0.9100 0.9100
2.548314 0.9100 0.9100 0.9120 0.9120 0.9120
2.583000 0.9120 0.9120 0.9120 0.9120 0.9100
2.617314 0.9100 0.9100 0.9100 0.9100 0.9100
2.652000 0.9100 0.9100 0.9100 0.9100 0.9100
2.686314 0.9100 0.9100 0.9100 0.9100 0.9120
2.720000 0.9120 0.9120 0.9120 0.9120 0.9120
2.754314 0.9120 0.9120 0.9120 0.9100 0.9100
2.789000 0.9100 0.9090 0.9070 0.9070 0.9070
2.823314 0.9050 0.9050 0.9030 0.9030 0.9020
2.857000 0.9020 0.9000 0.9000 0.8980 0.8980
2.891314 0.8910 0.8900 0.8880 0.8880 0.8880
2.926000 0.8880 0.8880 0.8880 0.8880 0.8880
2.960314 0.8880 0.8900 0.8900 0.8910 0.8930
2.995000 0.8930 0.8950 0.8950 0.8950 0.8970
3.029314 0.8970 0.8970 0.8970 0.8970 0.8970
3.063000 0.8970 0.8970 0.8970 0.8980 0.8980
3.097314 0.9020 0.9020 0.9020 0.9030 0.9030
3.132000 0.9030 0.9030 0.9050 0.9050 0.9050
3.166314 0.9050 0.9050 0.9050 0.9050 0.9050
3.200000 0.9030 0.9000 0.9000 0.9000 0.9000
3.234314 0.8980 0.8980 0.8980 0.8970 0.8950
3.269000 0.8930 0.8910 0.8880 0.8880 0.8830
3.303314 0.8780 0.8760 0.8730 0.8730 0.8710
3.338000 0.8710 0.8670 0.8550 0.8450 0.8380
3.372314 0.8280 0.8210 0.8180 0.8180 0.8210
3.406000 0.8280 0.8370 0.8500 0.8710 0.8810
3.440314 0.8900 0.8910 0.8910 0.8910 0.8900
3.475000 0.8880 0.8880 0.8880 0.8880 0.8880
3.509314 0.8900 0.8980 0.9000 0.9030 0.9090
3.543000 0.9100 0.9120 0.9120 0.9120 0.9120
3.577314 0.9140 0.9120 0.9120 0.9120 0.9120
3.612000 0.9140 0.9140 0.9140 0.9150 0.9190
3.646314 0.9190 0.9220 0.9290 0.9290 0.9290
3.681000 0.9270 0.9270 0.9270 0.9260 0.9260
3.715314 0.9260 0.9270 0.9290 0.9290 0.9290
3.749000 0.9290 0.9290 0.9270 0.9270 0.9270
3.783314 0.9270 0.9270 0.9270 0.9260 0.9260
3.818000 0.9260 0.9260 0.9260 0.9260 0.9260
3.852314 0.9260 0.9260 0.9260 0.9260 0.9260
3.886000 0.9270 0.9270 0.9270 0.9270 0.9270
3.920314 0.9270 0.9270 0.9270 0.9270 0.9270
3.955000 0.9270 0.9270 0.9270 0.9270 0.9260
3.989314 0.9260 0.9260 0.9260 0.9260 0.9260
4.024000 0.9260 0.9260 0.9260 0.9270 0.9270
4.058314 0.9270 0.9270 0.9270 0.9270 0.9270
4.092000 0.9270 0.9270 0.9270 0.9290 0.9290
4.126314 0.9290 0.9290 0.9290 0.9310 0.9360
4.161000 0.9380 0.9380 0.9390 0.9390 0.9410
4.195314 0.9410 0.9410 0.9410 0.9410 0.9410
4.229000 0.9410 0.9410 0.9410 0.9410 0.9410
4.263314 0.9410 0.9410 0.9410 0.9410 0.9390
4.298000 0.9390 0.9380 0.9360 0.9270 0.9210
4.332314 0.9190 0.9190 0.9190 0.9190 0.9190
4.366000 0.9220 0.9260 0.9260 0.9270 0.9270
4.400314 0.9290 0.9290 0.9290 0.9290 0.9290
4.435000 0.9290 0.9290 0.9290 0.9290 0.9290
4.469314 0.9290 0.9330 0.9360 0.9360 0.9360
4.504000 0.9380 0.9380 0.9360 0.9360 0.9360
4.538314 0.9360 0.9360 0.9360 0.9360 0.9380
4.572000 0.9380 0.9380 0.9390 0.9390 0.9410
4.606314 0.9410 0.9410 0.9410 0.9410 0.9410
4.641000 0.9410 0.9410 0.9390 0.9380 0.9360
4.675314 0.9330 0.9330 0.9310 0.9310 0.9310
4.709000 0.9310 0.9310 0.9310 0.9360 0.9380
4.743314 0.9390 0.9410 0.9410 0.9430 0.9430
4.778000 0.9480 0.9480 0.9480 0.9480 0.9480
4.812314 0.9480 0.9480 0.9480 0.9460 0.9460
4.847000 0.9460 0.9480 0.9480 0.9480 0.9480
4.881314 0.9480 0.9460 0.9460 0.9460 0.9450
4.915000 0.9450 0.9450 0.9450 0.9450 0.9450
4.949314 0.9450 0.9450 0.9450 0.9450 0.9430
4.984000 0.9430 0.9430 0.9410 0.9390 0.9340
5.018314 0.9310 0.9310 0.9310 0.9310 0.9310
5.052000 0.9310 0.9310 0.9310 0.9310 0.9310
5.086314 0.9310 0.9310 0.9380 0.9380 0.9380
5.121000 0.9380 0.9380 0.9380 0.9380 0.9380
5.155314 0.9380 0.9380 0.9380 0.9380 0.9380
5.190000 0.9380 0.9380 0.9360 0.9380 0.9380
5.224314 0.9380 0.9380 0.9380 0.9380 0.9380
5.258000 0.9380 0.9380 0.9380 0.9380 0.9380
5.292314 0.9380 0.9380 0.9360 0.9340 0.9330
5.327000 0.9330 0.9310 0.9270 0.9240 0.9210
5.361314 0.9210 0.9190 0.9140 0.9120 0.9050
5.395000 0.9000 0.8980 0.8980 0.8980 0.8980
5.429314 0.8980 0.9000 0.9020 0.9030 0.9070
5.464000 0.9070 0.9090 0.9090 0.8970 0.8900
5.498314 0.8730 0.8610 0.8540 0.8520 0.8490
5.533000 0.8470 0.8470 0.8470 0.8470 0.8490
5.567314 0.8490 0.8500 0.8500 0.8540 0.8550
5.601000 0.8620 0.8670 0.8730 0.8780 0.8810
5.635314 0.8860 0.8880 0.8930 0.8970 0.8970
5.670000 0.8980 0.8980 0.8980 0.8980 0.8980
5.704314 0.8950 0.8930 0.8910 0.8880 0.8850
5.738000 0.8790 0.8790 0.8790 0.8790 0.8790
5.772314 0.8790 0.8790 0.8790 0.8860 0.8950
5.807000 0.8970 0.8980 0.9000 0.9020 0.9020
5.841314 0.9050 0.9050 0.9070 0.9090 0.9090
5.876000 0.9090 0.9090 0.9070 0.9030 0.8980
5.910314 0.8930 0.8740 0.8470 0.8090 0.7680
5.944000 0.7230 0.6630 0.6320 0.6070 0.5450
5.978314 0.5190 0.5160 0.5160 0.5190 0.7110
6.013000 0.7490 0.7680 0.7870 0.8010 0.8250
6.047314 0.8300 0.8380 0.8420 0.8470 0.8490
6.081000 0.8500 0.8570 0.8610 0.8670 0.8670
6.115314 0.8710 0.8780 0.8780 0.8780 0.8780
6.150000 0.8780 0.8760 0.8760 0.8710 0.8670
6.184314 0.8640 0.8540 0.8470 0.8280 0.8130
6.219000 0.8040 0.7970 0.7830 0.7700 0.7580
6.253314 0.7440 0.7270 0.7130 0.6990 0.6870
6.287000 0.6770 0.6680 0.6620 0.6580 0.6510
6.321314 0.6500 0.6480 0.6440 0.6380 0.6310
6.356000 0.6220 0.6170 0.6100 0.6000 0.5900
6.390314 0.5830 0.5740 0.5660 0.5540 0.5420
6.424000 0.5310 0.5210 0.5180 0.5090 0.5040
6.458314 0.5040 0.5060 0.5070 0.5110 0.5180
6.493000 0.5280 0.5400 0.5540 0.5690 0.5840
6.527314 0.5950 0.6050 0.6140 0.6220 0.6310
6.561000 0.6410 0.6480 0.6550 0.6600 0.6650
6.595314 0.6740 0.6840 0.6980 0.7100 0.7150
6.630000 0.7250 0.7350 0.7490 0.7650 0.7710
6.664314 0.7800 0.7890 0.7990 0.8010 0.8090
6.699000 0.8180 0.8180 0.8230 0.8280 0.8280
6.733314 0.8300 0.8310 0.8310 0.8310 0.8310
6.767000 0.8310 0.8310 0.8280 0.8280 0.8250
6.801314 0.8210 0.8180 0.8160 0.8140 0.8130
6.836000 0.8110 0.8040 0.7990 0.7850 0.7780
6.870314 0.7540 0.7440 0.7250 0.7030 0.6820
6.904000 0.6560 0.6390 0.6260 0.6170 0.6100
6.938314 0.6070 0.6070 0.6140 0.6240 0.6390
6.973000 0.6530 0.6680 0.6800 0.6940 0.7060
7.007314 0.7180 0.7280 0.7320 0.7350 0.7350
7.042000 0.7370 0.7390 0.7400 0.7420 0.7420
7.076314 0.7470 0.7490 0.7510 0.7580 0.7610
7.110000 0.7680 0.7710 0.7730 0.7770 0.7770
7.144314 0.7770 0.7710 0.7630 0.7440 0.7180
7.179000 0.6790 0.6390 0.5900 0.5470 0.4730
7.213314 0.4270 0.4030 0.3990 0.4030 0.4690
7.247000 0.5040 0.6770 0.7440 0.7820 0.8060
7.281314 0.8230 0.8350 0.8420 0.8470 0.8470
7.316000 0.8490 0.8500 0.8570 0.8590 0.8620
7.350314 0.8670 0.8670 0.8710 0.8730 0.8760
7.385000 0.8760 0.8780 0.8780 0.8790 0.8790
7.419314 0.8790 0.8790 0.8790 0.8790 0.8790
7.453000 0.8790 0.8790 0.8790 0.8790 0.8790
7.487314 0.8790 0.8790 0.8790 0.8790 0.8790
7.522000 0.8790 0.8790 0.8790 0.8810 0.8810
7.556314 0.8810 0.8810 0.8810 0.8810 0.8810
7.590000 0.8810 0.8810 0.8810 0.8810 0.8810
7.624314 0.8810 0.8810 0.8810 0.8810 0.8810
7.659000 0.8810 0.8810 0.8810 0.8810 0.8810
7.693314 0.8780 0.8760 0.8710 0.8690 0.8670
7.728000 0.8620 0.8610 0.8570 0.8570 0.8500
7.762314 0.8470 0.8470 0.8420 0.8400 0.8380
7.796000 0.8380 0.8380 0.8380 0.8380 0.8380
7.830314 0.8380 0.8380 0.8370 0.8370 0.8310
7.865000 0.8280 0.8260 0.8210 0.8160 0.8090
7.899314 0.8040 0.7970 0.7870 0.7700 0.7530
7.933000 0.7350 0.7130 0.6910 0.6620 0.6290
7.967314 0.5910 0.5450 0.4900 0.4270 0.3680
8.002000 0.3200 0.2640 0.2090 0.1570 0.1090
8.036314 0.0890 0.0680 0.0650 0.0660 0.0780
8.071000 0.1020 0.1370 0.1800 0.2480 0.3170
8.105314 0.3510 0.4130 0.4640 0.5400 0.5640
8.139000 0.5960 0.6270 0.6500 0.6740 0.6910
8.173314 0.7010 0.7100 0.7150 0.7200 0.7270
8.208000 0.7370 0.7420 0.7470 0.7510 0.7560
8.242314 0.7610 0.7700 0.7770 0.7800 0.7870
8.276000 0.7940 0.7990 0.8070 0.8090 0.8160
8.310314 0.8210 0.8260 0.8260 0.8280 0.8300
8.345000 0.8300 0.8330 0.8350 0.8350 0.8370
8.379314 0.8380 0.8380 0.8380 0.8400 0.8400
8.414000 0.8400 0.8400 0.8420 0.8400 0.8400
8.448314 0.8400 0.8400 0.8400 0.8400 0.8400
8.482000 0.8400 0.8380 0.8370 0.8350 0.8350
8.516314 0.8350 0.8330 0.8330 0.8310 0.8310
8.551000 0.8310 0.8310 0.8330 0.8350 0.8370
8.585314 0.8380 0.8380 0.8400 0.8420 0.8450
8.619000 0.8470 0.8490 0.8490 0.8500 0.8520
8.653314 0.8540 0.8550 0.8570 0.8590 0.8610
8.688000 0.8610 0.8640 0.8660 0.8660 0.8670
8.722314 0.8670 0.8670 0.8670 0.8670 0.8670
8.756000 0.8670 0.8660 0.8640 0.8620 0.8610
8.790314 0.8610 0.8610 0.8590 0.8590 0.8590
8.825000 0.8590 0.8590 0.8590 0.8590 0.8590
8.859314 0.8590 0.8590 0.8590 0.8590 0.8590
8.894000 0.8590 0.8590 0.8590 0.8590 0.8570
8.928314 0.8570 0.8570 0.8500 0.8490 0.8400
8.962000 0.8380 0.8300 0.8280 0.8250 0.8190
8.996314 0.8190 0.8180 0.8180 0.8180 0.8190
9.031000 0.8230 0.8260 0.8300 0.8350 0.8380
9.065314 0.8450 0.8450 0.8470 0.8490 0.8490
9.099000 0.8500 0.8500 0.8500 0.8500 0.8500
9.133314 0.8500 0.8500 0.8500 0.8490 0.8470
9.168000 0.8470 0.8470 0.8450 0.8430 0.8420
9.202314 0.8380 0.8370 0.8370 0.8370 0.8380
9.237000 0.8380 0.8380 0.8380 0.8380 0.8400
9.271314 0.8420 0.8430 0.8430 0.8450 0.8450
9.305000 0.8450 0.8470 0.8470 0.8470 0.8470
9.339314 0.8470 0.8450 0.8450 0.8450 0.8430
9.374000 0.8380 0.8370 0.8350 0.8300 0.8250
9.408314 0.8140 0.8070 0.8020 0.7970 0.7870
9.442000 0.7730 0.7590 0.7420 0.7280 0.7130
9.476314 0.6980 0.6840 0.6750 0.6670 0.6600
9.511000 0.6580 0.6560 0.6560 0.6560 0.6560
9.545314 0.6510 0.6480 0.6410 0.6220 0.6030
9.580000 0.5780 0.5570 0.5350 0.5070 0.4450
9.614314 0.3940 0.3670 0.3290 0.3080 0.2930
9.648000 0.2890 0.2890 0.2890 0.3070 0.3240
9.682314 0.3440 0.3670 0.3910 0.4150 0.4390
9.717000 0.4630 0.4880 0.5110 0.5330 0.5470
9.751314 0.5620 0.5740 0.5860 0.5980 0.6030
9.785000 0.6120 0.6170 0.6240 0.6290 0.6340
9.819314 0.6380 0.6380 0.6390 0.6410 0.6410
9.854000 0.6390 0.6380 0.6360 0.6320 0.6270
9.888314 0.6200 0.6170 0.6150 0.6120 0.6100
9.923000 0.6100 0.6100 0.6140 0.6170 0.6200
9.957314 0.6290 0.6360 0.6460 0.6550 0.6630
9.991000 0.6720 0.6800 0.6890 0.6980 0.7040
10.025314 0.7110 0.7150 0.7180 0.7220 0.7270
10.060000 0.7270 0.7280 0.7280 0.7280 0.7280
10.094314 0.7270 0.7270 0.7220 0.7180 0.7160
10.128000 0.7080 0.7040 0.6980 0.6890 0.6820
10.162314 0.6740 0.6650 0.6550 0.6460 0.6380
10.197000 0.6190 0.6080 0.5830 0.5620 0.5430
10.231314 0.5280 0.5070 0.4810 0.4400 0.4180
10.266000 0.3790 0.3440 0.3050 0.2670 0.2280
10.300314 0.1950 0.1610 0.1380 0.0990 0.0750
10.334000 0.0540 0.0390 0.0290 0.0220 0.0170
10.368314 0.0150 0.0120 0.0120 0.0120 0.0120
10.403000 0.0120 0.0130 0.0170 0.0170 0.0180
10.437314 0.0240 0.0390 0.0540 0.0630 0.0800
10.471000 0.1060 0.1370 0.1730 0.2120 0.2520
10.505314 0.2890 0.3250 0.3580 0.3850 0.4080
10.540000 0.4330 0.4540 0.4750 0.5020 0.5140
10.574314 0.5300 0.5420 0.5450 0.5570 0.5720
10.609000 0.5830 0.5910 0.5950 0.6000 0.6030
10.643314 0.6100 0.6200 0.6340 0.6500 0.6650
10.677000 0.6790 0.6940 0.7030 0.7150 0.7230
10.711314 0.7300 0.7400 0.7490 0.7530 0.7590
10.746000 0.7660 0.7660 0.7700 0.7750 0.7750
10.780314 0.7750 0.7750 0.7770 0.7770 0.7770
10.814000 0.7780 0.7780 0.7780 0.7770 0.7770
10.848314 0.7750 0.7750 0.7750 0.7710 0.7680
10.883000 0.7610 0.7560 0.7470 0.7420 0.7340
10.917314 0.7220 0.7160 0.7060 0.6940 0.6800
10.951000 0.6650 0.6480 0.6290 0.6070 0.5840
10.985314 0.5600 0.5360 0.5090 0.4590 0.4180
11.020000 0.3870 0.3560 0.3250 0.2880 0.2450
11.054314 0.2210 0.1950 0.1740 0.1610 0.1540
11.089000 0.1500 0.1500 0.1540 0.1730 0.1930
11.123314 0.2090 0.2520 0.2890 0.3220 0.3550
11.157000 0.3840 0.4150 0.4450 0.4780 0.5160
11.191314 0.5240 0.5470 0.5830 0.5910 0.6020
11.226000 0.6030 0.6190 0.6270 0.6380 0.6430
11.260314 0.6500 0.6560 0.6600 0.6670 0.6680
11.294000 0.6720 0.6750 0.6770 0.6770 0.6750
11.328314 0.6750 0.6750 0.6740 0.6720 0.6680
11.363000 0.6680 0.6680 0.6680 0.6680 0.6700
11.397314 0.6740 0.6790 0.6840 0.6910 0.6960
11.432000 0.6980 0.7030 0.7080 0.7150 0.7150
11.466314 0.7160 0.7180 0.7200 0.7200 0.7220
11.500000 0.7220 0.7220 0.7200 0.7200 0.7200
11.534314 0.7180 0.7180 0.7180 0.7180 0.7160
11.569000 0.7160 0.7160 0.7160 0.7160 0.7160
11.603314 0.7150 0.7130 0.7110 0.7110 0.7100
11.637000 0.7100 0.7100 0.7100 0.7100 0.7100
11.671314 0.7080 0.7080 0.7080 0.7080 0.7080
11.706000 0.7080 0.7080 0.7080 0.7130 0.7160
11.740314 0.7180 0.7200 0.7270 0.7270 0.7300
11.775000 0.7340 0.7370 0.7400 0.7440 0.7490
11.809314 0.7540 0.7630 0.7630 0.7680 0.7700
11.843000 0.7750 0.7770 0.7780 0.7800 0.7820
11.877314 0.7830 0.7830 0.7850 0.7850 0.7850
11.912000 0.7850 0.7850 0.7830 0.7830 0.7830
11.946314 0.7830 0.7830 0.7800 0.7800 0.7780
11.980000 0.7780 0.7780 0.7780 0.7780 0.7780
12.014314 0.7830 0.7850 0.7890 0.7940 0.7970
12.049000 0.8010 0.8060 0.8130 0.8160 0.8180
12.083314 0.8260 0.8280 0.8330 0.8380 0.8400
12.118000 0.8430 0.8470 0.8470 0.8490 0.8500
12.152314 0.8500 0.8550 0.8570 0.8570 0.8590
12.186000 0.8610 0.8620 0.8640 0.8640 0.8660
12.220314 0.8670 0.8670 0.8670 0.8690 0.8690
12.255000 0.8690 0.8690 0.8710 0.8710 0.8710
12.289314 0.8710 0.8710 0.8710 0.8710 0.8710
12.323000 0.8710 0.8710 0.8710 0.8710 0.8710
12.357314 0.8710 0.8710 0.8710 0.8710 0.8710
12.392000 0.8710 0.8710 0.8710 0.8710 0.8710
12.426314 0.8710 0.8710 0.8710 0.8710 0.8710
12.461000 0.8710 0.8710 0.8710 0.8710 0.8710
12.495314 0.8710 0.8690 0.8690 0.8690 0.8690
12.529000 0.8690 0.8690 0.8690 0.8690 0.8690
12.563314 0.8690 0.8690 0.8690 0.8690 0.8690
12.598000 0.8690 0.8690 0.8690 0.8690 0.8690
12.632314 0.8690 0.8690 0.8690 0.8690 0.8690
12.666000 0.8690 0.8690 0.8690 0.8670 0.8670
12.700314 0.8670 0.8670 0.8670 0.8670 0.8670
12.735000 0.8670 0.8670 0.8670 0.8670 0.8670
12.769314 0.8670 0.8670 0.8670 0.8670 0.8670
12.804000 0.8670 0.8670 0.8670 0.8670 0.8670
12.838314 0.8670 0.8670 0.8670 0.8670 0.8670
12.872000 0.8670 0.8670 0.8670 0.8670 0.8670
12.906314 0.8670 0.8670 0.8660 0.8640 0.8620
12.941000 0.8610 0.8590 0.8570 0.8570 0.8550
12.975314 0.8540 0.8520 0.8520 0.8500 0.8500
13.009000 0.8490 0.8490 0.8490 0.8490 0.8490
13.043314 0.8490 0.8490 0.8490 0.8490 0.8490
13.078000 0.8490 0.8490 0.8490 0.8490 0.8490
13.112314 0.8490 0.8490 0.8490 0.8490 0.8470
13.146000 0.8470 0.8470 0.8470 0.8470 0.8470
13.180314 0.8470 0.8470 0.8450 0.8450 0.8450
13.215000 0.8450 0.8430 0.8430 0.8430 0.8430
13.249314 0.8430 0.8420 0.8400 0.8400 0.8400
13.284000 0.8400 0.8400 0.8380 0.8380 0.8370
13.318314 0.8370 0.8350 0.8330 0.8330 0.8310
13.352000 0.8300 0.8300 0.8300 0.8300 0.8280
13.386314 0.8280 0.8280 0.8280 0.8280 0.8280
13.421000 0.8280 0.8260 0.8260 0.8250 0.8250
13.455314 0.8230 0.8210 0.8210 0.8190 0.8190
13.489000 0.8180 0.8180 0.8160 0.8160 0.8140
13.523314 0.8140 0.8130 0.8130 0.8110 0.8110
13.558000 0.8090 0.8090 0.8090 0.8090 0.8090
13.592314 0.8070 0.8070 0.8070 0.8070 0.8070
13.627000 0.8070 0.8070 0.8070 0.8070 0.8070
13.661314 0.8070 0.8070 0.8070 0.8060 0.8060
13.695000 0.8040 0.8020 0.8020 0.8010 0.7990
13.729314 0.7990 0.7990 0.7970 0.7970 0.7950
13.764000 0.7950 0.7940 0.7940 0.7920 0.7920
13.798314 0.7900 0.7900 0.7900 0.7890 0.7890
13.832000 0.7870 0.7870 0.7850 0.7850 0.7830
13.866314 0.7830 0.7820 0.7800 0.7780 0.7770
13.901000 0.7750 0.7730 0.7710 0.7700 0.7700
13.935314 0.7680 0.7660 0.7660 0.7650 0.7650
13.970000 0.7630 0.7630 0.7610 0.7590 0.7590
14.004314 0.7560 0.7560 0.7540 0.7530 0.7510
14.038000 0.7490 0.7470 0.7470 0.7460 0.7460
14.072314 0.7420 0.7420 0.7420 0.7400 0.7400
14.107000 0.7400 0.7390 0.7370 0.7370 0.7350
14.141314 0.7340 0.7300 0.7280 0.7270 0.7270
14.175000 0.7220 0.7200 0.7200 0.7180 0.7160
14.209314 0.7150 0.7130 0.7100 0.7080 0.7060
14.244000 0.7030 0.7010 0.7010 0.6990 0.6990
14.278314 0.6980 0.6980 0.6980 0.6960 0.6960
14.313000 0.6960 0.6960 0.6960 0.6960 0.6960
14.347314 0.6960 0.6940 0.6940 0.6940 0.6940
14.381000 0.6940 0.6920 0.6920 0.6920 0.6910
14.415314 0.6910 0.6890 0.6870 0.6870 0.6870
14.450000 0.6860 0.6860 0.6860 0.6860 0.6840
14.484314 0.6840 0.6800 0.6790 0.6770 0.6770
14.518000 0.6750 0.6750 0.6740 0.6720 0.6700
14.552314 0.6700 0.6680 0.6670 0.6670 0.6670
14.587000 0.6630 0.6620 0.6580 0.6550 0.6530
14.621314 0.6510 0.6510 0.6500 0.6480 0.6480
14.656000 0.6460 0.6460 0.6410 0.6390 0.6390
14.690314 0.6380 0.6380 0.6360 0.6360 0.6320
14.724000 0.6320 0.6310 0.6310 0.6290 0.6290
14.758314 0.6290 0.6270 0.6270 0.6270 0.6270
14.793000 0.6240 0.6200 0.6190 0.6190 0.6190
14.827314 0.6190 0.6190 0.6190 0.6170 0.6170
14.861000 0.6170 0.6170 0.6170 0.6150 0.6140
14.895314 0.6140 0.6140 0.6120 0.6120 0.6120
14.930000 0.6120 0.6120 0.6120 0.6120 0.6120
14.964314 0.6100 0.6080 0.6080 0.6070 0.6020
14.999000 0.6000 0.5980 0.5960 0.5910 0.5910
15.033314 0.5880 0.5860 0.5830 0.5810 0.5790
15.067000 0.5760 0.5740 0.5720 0.5710 0.5690
15.101314 0.5690 0.5670 0.5670 0.5660 0.5640
15.136000 0.5600 0.5590 0.5590 0.5570 0.5570
15.170314 0.5550 0.5540 0.5520 0.5500 0.5480
15.204000 0.5470 0.5470 0.5470 0.5450 0.5450
15.238314 0.5430 0.5420 0.5400 0.5400 0.5380
15.273000 0.5380 0.5360 0.5350 0.5350 0.5330
15.307314 0.5310 0.5300 0.5300 0.5300 0.5280
15.341000 0.5280 0.5280 0.5260 0.5260 0.5240
15.375314 0.5230 0.5230 0.5230 0.5210 0.5190
15.410000 0.5190 0.5180 0.5180 0.5160 0.5160
15.444314 0.5140 0.5140 0.5140 0.5120 0.5120
15.479000 0.5110 0.5110 0.5110 0.5090 0.5090
15.513314 0.5090 0.5090 0.5070 0.5070 0.5070
15.547000 0.5070 0.5070 0.5070 0.5070 0.5070
15.581314 0.5040 0.5040 0.5020 0.5000 0.5000
15.616000 0.4990 0.4990 0.4990 0.4990 0.4990
15.650314 0.4990 0.4990 0.4990 0.4990 0.4990
15.684000 0.4990 0.4990 0.4990 0.4990 0.4990
15.718314 0.4990 0.4990 0.4990 0.4990 0.4970
15.753000 0.4970 0.4970 0.4970 0.4970 0.4970
15.787314 0.4970 0.4970 0.4970 0.4970 0.4970
15.822000 0.4970 0.4970 0.4970 0.4970 0.4970
15.856314 0.4970 0.4970 0.4990 0.4990 0.4990
15.890000 0.4970 0.4970 0.4970 0.4970
##END=
