##TITLE=CYANOGEN
##JCAMP-DX=4.24
##DATA TYPE=INFRARED SPECTRUM
##CLASS=COBLENTZ
##ORIGIN=WYANDOTTE CHEMICALS CORP., WYANDOTTE, MICHIGAN, USA
##OWNER=COBLENTZ SOCIETY
Collection (C) 2018 copyright by the U.S. Secretary of Commerce
on behalf of the United States of America. All rights reserved.
##DATE=Not specified, most likely prior to 1970
##NAMES=oxalonitrile
##CAS REGISTRY NO=460-19-5
##MOLFORM=C2 N2
##SOURCE REFERENCE=COBLENTZ NO. 2849
##$NIST SOURCE=COBLENTZ
##$NIST IMAGE=cob2849
##SPECTROMETER/DATA SYSTEM=Not specified, most likely a prism, grating, or hybrid spectrometer.
##STATE=GAS
##PATH LENGTH=5 CM
##SAMPLING PROCEDURE=TRANSMISSION
##RESOLUTION=4
##DATA PROCESSING=DIGITIZED BY NIST FROM HARD COPY
##XUNITS=MICROMETERS
##YUNITS=TRANSMITTANCE
##XFACTOR=1.000000
##YFACTOR=1
##DELTAX=000.006635
##FIRSTX=2.027
##LASTX=15.9998
##FIRSTY=0.913
##MAXX=15.9998
##MINX=2.027
##MAXY=0.968
##MINY=0.153
##NPOINTS=2107
##XYDATA=(X++(Y..Y))
2.027000 0.9130 0.9130 0.9130 0.9130 0.9130
2.060191 0.9150 0.9150 0.9150 0.9150 0.9150
2.093000 0.9150 0.9170 0.9170 0.9170 0.9180
2.126191 0.9180 0.9180 0.9180 0.9200 0.9200
2.159000 0.9200 0.9200 0.9220 0.9220 0.9220
2.192191 0.9220 0.9220 0.9220 0.9220 0.9220
2.226000 0.9220 0.9220 0.9220 0.9220 0.9220
2.259191 0.9220 0.9220 0.9220 0.9220 0.9220
2.292000 0.9220 0.9220 0.9220 0.9220 0.9220
2.325191 0.9220 0.9220 0.9220 0.9230 0.9230
2.358000 0.9230 0.9230 0.9230 0.9230 0.9230
2.391191 0.9250 0.9250 0.9250 0.9250 0.9250
2.425000 0.9250 0.9250 0.9250 0.9250 0.9250
2.458191 0.9250 0.9250 0.9250 0.9250 0.9270
2.491000 0.9270 0.9280 0.9280 0.9300 0.9300
2.524191 0.9320 0.9330 0.9330 0.9350 0.9350
2.557000 0.9370 0.9370 0.9370 0.9370 0.9370
2.590191 0.9370 0.9370 0.9350 0.9350 0.9330
2.624000 0.9330 0.9320 0.9300 0.9300 0.9280
2.657191 0.9280 0.9280 0.9280 0.9280 0.9300
2.690000 0.9300 0.9320 0.9320 0.9320 0.9330
2.723191 0.9330 0.9330 0.9330 0.9330 0.9330
2.756000 0.9330 0.9330 0.9350 0.9350 0.9370
2.789191 0.9370 0.9370 0.9370 0.9370 0.9350
2.823000 0.9350 0.9330 0.9320 0.9280 0.9280
2.856191 0.9270 0.9270 0.9270 0.9270 0.9270
2.889000 0.9270 0.9270 0.9270 0.9270 0.9270
2.922191 0.9270 0.9270 0.9270 0.9270 0.9250
2.955000 0.9230 0.9230 0.9220 0.9220 0.9220
2.988191 0.9220 0.9220 0.9220 0.9220 0.9220
3.022000 0.9220 0.9220 0.9220 0.9220 0.9220
3.055191 0.9220 0.9220 0.9220 0.9220 0.9220
3.088000 0.9220 0.9220 0.9220 0.9220 0.9220
3.121191 0.9220 0.9220 0.9220 0.9230 0.9230
3.155000 0.9230 0.9230 0.9230 0.9230 0.9230
3.188191 0.9250 0.9270 0.9280 0.9280 0.9300
3.221000 0.9300 0.9320 0.9320 0.9300 0.9300
3.254191 0.9280 0.9280 0.9280 0.9270 0.9270
3.287000 0.9250 0.9250 0.9230 0.9220 0.9220
3.320191 0.9200 0.9180 0.9180 0.9180 0.9180
3.354000 0.9180 0.9180 0.9180 0.9180 0.9200
3.387191 0.9200 0.9200 0.9200 0.9200 0.9220
3.420000 0.9230 0.9230 0.9250 0.9250 0.9280
3.453191 0.9280 0.9280 0.9300 0.9300 0.9320
3.486000 0.9320 0.9320 0.9330 0.9330 0.9350
3.519191 0.9350 0.9350 0.9350 0.9370 0.9370
3.553000 0.9370 0.9370 0.9380 0.9380 0.9380
3.586191 0.9380 0.9400 0.9400 0.9400 0.9400
3.619000 0.9400 0.9400 0.9400 0.9400 0.9400
3.652191 0.9400 0.9400 0.9400 0.9400 0.9400
3.685000 0.9380 0.9380 0.9370 0.9350 0.9350
3.718191 0.9330 0.9270 0.9100 0.8790 0.8340
3.752000 0.7590 0.6470 0.6450 0.6470 0.6930
3.785191 0.7580 0.8220 0.8690 0.9070 0.9220
3.818000 0.9300 0.9320 0.9330 0.9350 0.9350
3.851191 0.9350 0.9350 0.9330 0.9330 0.9330
3.884000 0.9230 0.8950 0.8390 0.7940 0.7230
3.917191 0.6650 0.6350 0.6340 0.6350 0.6950
3.951000 0.7330 0.7780 0.8210 0.8850 0.8950
3.984191 0.9080 0.9180 0.9250 0.9300 0.9350
4.017000 0.9370 0.9380 0.9380 0.9380 0.9380
4.050191 0.9380 0.9380 0.9400 0.9400 0.9400
4.083000 0.9400 0.9400 0.9420 0.9420 0.9420
4.116191 0.9420 0.9420 0.9420 0.9420 0.9420
4.150000 0.9420 0.9420 0.9420 0.9420 0.9420
4.183191 0.9420 0.9420 0.9420 0.9420 0.9420
4.216000 0.9420 0.9400 0.9370 0.9350 0.9250
4.249191 0.9130 0.8970 0.8790 0.8590 0.8390
4.282000 0.8190 0.8020 0.7880 0.7690 0.7510
4.315191 0.7330 0.7150 0.7110 0.7050 0.7030
4.349000 0.7010 0.7030 0.7260 0.7500 0.7680
4.382191 0.7910 0.8140 0.8360 0.8600 0.8820
4.415000 0.8920 0.9020 0.9130 0.9250 0.9280
4.448191 0.9320 0.9330 0.9370 0.9380 0.9380
4.482000 0.9400 0.9400 0.9400 0.9430 0.9430
4.515191 0.9450 0.9470 0.9470 0.9480 0.9480
4.548000 0.9500 0.9500 0.9500 0.9500 0.9500
4.581191 0.9500 0.9500 0.9500 0.9510 0.9510
4.614000 0.9510 0.9500 0.9480 0.9470 0.9370
4.647191 0.9050 0.8700 0.8360 0.8340 0.5560
4.681000 0.5540 0.3990 0.3170 0.1920 0.1670
4.714191 0.1530 0.1530 0.1550 0.2100 0.2960
4.747000 0.4180 0.4980 0.5610 0.6370 0.7210
4.780191 0.7990 0.9380 0.9400 0.9420 0.9400
4.813000 0.8950 0.8900 0.8890 0.8890 0.8900
4.846191 0.9020 0.9130 0.9250 0.9280 0.9300
4.880000 0.9380 0.9400 0.9430 0.9450 0.9450
4.913191 0.9470 0.9470 0.9480 0.9480 0.9500
4.946000 0.9500 0.9510 0.9530 0.9560 0.9610
4.979191 0.9610 0.9630 0.9650 0.9650 0.9660
5.012000 0.9660 0.9660 0.9660 0.9650 0.9650
5.045191 0.9630 0.9630 0.9610 0.9610 0.9610
5.079000 0.9610 0.9610 0.9610 0.9610 0.9610
5.112191 0.9610 0.9610 0.9610 0.9610 0.9610
5.145000 0.9610 0.9610 0.9610 0.9610 0.9610
5.178191 0.9610 0.9610 0.9610 0.9610 0.9610
5.211000 0.9610 0.9610 0.9610 0.9610 0.9610
5.244191 0.9610 0.9610 0.9610 0.9610 0.9610
5.278000 0.9610 0.9630 0.9630 0.9630 0.9630
5.311191 0.9650 0.9650 0.9660 0.9660 0.9650
5.344000 0.9610 0.9610 0.9600 0.9600 0.9600
5.377191 0.9600 0.9600 0.9600 0.9600 0.9600
5.410000 0.9600 0.9600 0.9600 0.9610 0.9610
5.443191 0.9650 0.9680 0.9680 0.9680 0.9660
5.477000 0.9650 0.9650 0.9630 0.9630 0.9630
5.510191 0.9630 0.9630 0.9630 0.9610 0.9610
5.543000 0.9610 0.9610 0.9610 0.9610 0.9610
5.576191 0.9610 0.9610 0.9610 0.9610 0.9610
5.609000 0.9610 0.9610 0.9610 0.9610 0.9610
5.642191 0.9610 0.9610 0.9610 0.9610 0.9610
5.676000 0.9610 0.9610 0.9610 0.9610 0.9610
5.709191 0.9610 0.9610 0.9610 0.9610 0.9610
5.742000 0.9610 0.9600 0.9600 0.9600 0.9600
5.775191 0.9580 0.9580 0.9580 0.9560 0.9560
5.809000 0.9560 0.9560 0.9560 0.9560 0.9580
5.842191 0.9580 0.9600 0.9600 0.9600 0.9610
5.875000 0.9610 0.9610 0.9600 0.9600 0.9580
5.908191 0.9510 0.9480 0.9470 0.9470 0.9470
5.941000 0.9500 0.9500 0.9500 0.9500 0.9500
5.974191 0.9500 0.9500 0.9480 0.9430 0.9400
6.008000 0.9370 0.9350 0.9330 0.9330 0.9350
6.041191 0.9370 0.9380 0.9380 0.9380 0.9380
6.074000 0.9380 0.9380 0.9380 0.9400 0.9400
6.107191 0.9400 0.9400 0.9400 0.9400 0.9400
6.140000 0.9400 0.9400 0.9400 0.9400 0.9400
6.173191 0.9400 0.9400 0.9400 0.9400 0.9400
6.207000 0.9400 0.9400 0.9400 0.9400 0.9420
6.240191 0.9420 0.9420 0.9430 0.9430 0.9430
6.273000 0.9450 0.9450 0.9470 0.9470 0.9470
6.306191 0.9470 0.9470 0.9470 0.9470 0.9480
6.339000 0.9480 0.9480 0.9480 0.9480 0.9480
6.372191 0.9500 0.9500 0.9500 0.9500 0.9500
6.406000 0.9500 0.9470 0.9450 0.9420 0.9400
6.439191 0.9380 0.9380 0.9380 0.9400 0.9430
6.472000 0.9450 0.9450 0.9430 0.9400 0.9400
6.505191 0.9400 0.9400 0.9400 0.9400 0.9420
6.538000 0.9430 0.9470 0.9500 0.9510 0.9530
6.571191 0.9530 0.9550 0.9550 0.9560 0.9580
6.605000 0.9580 0.9580 0.9600 0.9600 0.9600
6.638191 0.9600 0.9600 0.9600 0.9600 0.9600
6.671000 0.9600 0.9600 0.9600 0.9600 0.9600
6.704191 0.9580 0.9550 0.9530 0.9510 0.9480
6.737000 0.9470 0.9470 0.9450 0.9450 0.9450
6.770191 0.9430 0.9430 0.9430 0.9420 0.9420
6.804000 0.9420 0.9420 0.9420 0.9400 0.9380
6.837191 0.9380 0.9380 0.9380 0.9380 0.9380
6.870000 0.9380 0.9380 0.9380 0.9380 0.9370
6.903191 0.9350 0.9350 0.9330 0.9330 0.9330
6.936000 0.9350 0.9350 0.9370 0.9370 0.9370
6.969191 0.9370 0.9370 0.9370 0.9370 0.9370
7.003000 0.9370 0.9350 0.9320 0.9320 0.9300
7.036191 0.9280 0.9250 0.9220 0.9080 0.9080
7.069000 0.9030 0.9020 0.9020 0.9020 0.9020
7.102191 0.9020 0.9020 0.9020 0.9000 0.9000
7.136000 0.9000 0.9020 0.9020 0.9020 0.9020
7.169191 0.9020 0.9020 0.9020 0.9000 0.9000
7.202000 0.8990 0.8990 0.8990 0.9000 0.9000
7.235191 0.9020 0.9020 0.9030 0.9030 0.9070
7.268000 0.9080 0.9130 0.9180 0.9180 0.9200
7.301191 0.9220 0.9270 0.9320 0.9330 0.9370
7.335000 0.9400 0.9420 0.9420 0.9430 0.9450
7.368191 0.9450 0.9470 0.9470 0.9470 0.9470
7.401000 0.9470 0.9470 0.9470 0.9470 0.9480
7.434191 0.9480 0.9480 0.9480 0.9500 0.9500
7.467000 0.9500 0.9500 0.9500 0.9500 0.9500
7.500191 0.9500 0.9480 0.9480 0.9480 0.9480
7.534000 0.9480 0.9480 0.9480 0.9480 0.9480
7.567191 0.9480 0.9480 0.9480 0.9480 0.9480
7.600000 0.9480 0.9480 0.9480 0.9480 0.9480
7.633191 0.9480 0.9470 0.9450 0.9450 0.9450
7.666000 0.9450 0.9450 0.9450 0.9450 0.9450
7.699191 0.9450 0.9470 0.9470 0.9470 0.9470
7.733000 0.9470 0.9470 0.9470 0.9470 0.9470
7.766191 0.9470 0.9470 0.9450 0.9450 0.9450
7.799000 0.9430 0.9430 0.9430 0.9430 0.9420
7.832191 0.9420 0.9420 0.9420 0.9420 0.9420
7.865000 0.9420 0.9420 0.9420 0.9420 0.9420
7.898191 0.9400 0.9400 0.9400 0.9380 0.9380
7.932000 0.9380 0.9370 0.9370 0.9370 0.9370
7.965191 0.9350 0.9350 0.9350 0.9350 0.9350
7.998000 0.9350 0.9350 0.9350 0.9350 0.9350
8.031191 0.9330 0.9330 0.9330 0.9320 0.9300
8.064000 0.9300 0.9300 0.9300 0.9300 0.9280
8.097191 0.9280 0.9280 0.9270 0.9270 0.9270
8.131000 0.9270 0.9270 0.9270 0.9280 0.9280
8.164191 0.9280 0.9280 0.9280 0.9270 0.9270
8.197000 0.9270 0.9230 0.9220 0.9220 0.9220
8.230191 0.9220 0.9230 0.9250 0.9270 0.9280
8.264000 0.9300 0.9300 0.9300 0.9300 0.9300
8.297191 0.9320 0.9320 0.9320 0.9320 0.9320
8.330000 0.9330 0.9330 0.9330 0.9330 0.9330
8.363191 0.9330 0.9330 0.9330 0.9330 0.9330
8.396000 0.9330 0.9330 0.9330 0.9330 0.9330
8.429191 0.9330 0.9330 0.9350 0.9370 0.9370
8.463000 0.9370 0.9380 0.9420 0.9420 0.9420
8.496191 0.9400 0.9400 0.9380 0.9380 0.9380
8.529000 0.9380 0.9380 0.9380 0.9380 0.9400
8.562191 0.9400 0.9420 0.9420 0.9420 0.9420
8.595000 0.9420 0.9420 0.9420 0.9420 0.9420
8.628191 0.9420 0.9420 0.9420 0.9420 0.9420
8.662000 0.9430 0.9430 0.9450 0.9450 0.9450
8.695191 0.9450 0.9470 0.9470 0.9470 0.9470
8.728000 0.9470 0.9480 0.9480 0.9480 0.9480
8.761191 0.9500 0.9500 0.9500 0.9500 0.9500
8.794000 0.9500 0.9480 0.9480 0.9470 0.9470
8.827191 0.9450 0.9430 0.9430 0.9420 0.9380
8.861000 0.9370 0.9350 0.9350 0.9350 0.9350
8.894191 0.9350 0.9350 0.9330 0.9320 0.9300
8.927000 0.9300 0.9300 0.9280 0.9280 0.9270
8.960191 0.9270 0.9250 0.9250 0.9230 0.9220
8.993000 0.9220 0.9180 0.9180 0.9180 0.9170
9.026191 0.9170 0.9150 0.9130 0.9130 0.9130
9.060000 0.9120 0.9120 0.9120 0.9120 0.9100
9.093191 0.9100 0.9100 0.9080 0.9080 0.9080
9.126000 0.9070 0.9050 0.9030 0.9030 0.9030
9.159191 0.9020 0.9020 0.9020 0.9000 0.9000
9.192000 0.8990 0.8990 0.8990 0.8990 0.8990
9.225191 0.8990 0.8990 0.8990 0.8990 0.8990
9.259000 0.8990 0.8990 0.8990 0.8990 0.8990
9.292191 0.8990 0.8990 0.8990 0.8990 0.8990
9.325000 0.8990 0.9000 0.9000 0.9000 0.9000
9.358191 0.9000 0.9000 0.9000 0.9000 0.9000
9.391000 0.9000 0.9000 0.9000 0.9000 0.9000
9.424191 0.9000 0.9000 0.9000 0.9000 0.9000
9.458000 0.9000 0.9000 0.9000 0.9000 0.9000
9.491191 0.9000 0.9000 0.9000 0.9000 0.9000
9.524000 0.9000 0.9000 0.9000 0.9000 0.9000
9.557191 0.9000 0.9000 0.9000 0.9000 0.9000
9.591000 0.9000 0.9000 0.9000 0.9020 0.9020
9.624191 0.9020 0.9020 0.9020 0.9020 0.9020
9.657000 0.9020 0.9020 0.9020 0.9020 0.9030
9.690191 0.9030 0.9030 0.9030 0.9030 0.9030
9.723000 0.9030 0.9050 0.9050 0.9050 0.9050
9.756191 0.9070 0.9070 0.9070 0.9070 0.9070
9.790000 0.9070 0.9070 0.9070 0.9070 0.9050
9.823191 0.9050 0.9030 0.9020 0.9020 0.9020
9.856000 0.9030 0.9070 0.9080 0.9080 0.9100
9.889191 0.9100 0.9120 0.9120 0.9120 0.9150
9.922000 0.9150 0.9150 0.9130 0.9130 0.9100
9.955191 0.9100 0.9100 0.9100 0.9100 0.9130
9.989000 0.9150 0.9170 0.9180 0.9180 0.9180
10.022191 0.9180 0.9180 0.9180 0.9180 0.9180
10.055000 0.9180 0.9180 0.9180 0.9180 0.9180
10.088191 0.9180 0.9180 0.9180 0.9180 0.9180
10.121000 0.9180 0.9200 0.9200 0.9200 0.9200
10.154191 0.9200 0.9200 0.9220 0.9220 0.9220
10.188000 0.9220 0.9220 0.9220 0.9220 0.9230
10.221191 0.9230 0.9230 0.9230 0.9250 0.9250
10.254000 0.9250 0.9250 0.9250 0.9230 0.9230
10.287191 0.9220 0.9200 0.9180 0.9180 0.9200
10.320000 0.9270 0.9270 0.9270 0.9270 0.9250
10.353191 0.9230 0.9220 0.9200 0.9200 0.9200
10.387000 0.9220 0.9230 0.9250 0.9280 0.9280
10.420191 0.9280 0.9270 0.9250 0.9250 0.9230
10.453000 0.9230 0.9220 0.9220 0.9220 0.9220
10.486191 0.9230 0.9230 0.9230 0.9250 0.9250
10.519000 0.9250 0.9270 0.9270 0.9270 0.9270
10.552191 0.9280 0.9280 0.9280 0.9280 0.9300
10.586000 0.9300 0.9300 0.9300 0.9300 0.9280
10.619191 0.9280 0.9280 0.9280 0.9270 0.9270
10.652000 0.9270 0.9270 0.9270 0.9280 0.9280
10.685191 0.9280 0.9280 0.9280 0.9280 0.9280
10.718000 0.9280 0.9280 0.9280 0.9280 0.9280
10.751191 0.9280 0.9280 0.9280 0.9280 0.9280
10.785000 0.9280 0.9280 0.9280 0.9280 0.9280
10.818191 0.9300 0.9300 0.9300 0.9300 0.9300
10.851000 0.9300 0.9300 0.9300 0.9300 0.9300
10.884191 0.9300 0.9320 0.9320 0.9320 0.9320
10.918000 0.9320 0.9320 0.9320 0.9320 0.9320
10.951191 0.9320 0.9320 0.9320 0.9320 0.9320
10.984000 0.9320 0.9320 0.9320 0.9320 0.9320
11.017191 0.9320 0.9330 0.9330 0.9330 0.9330
11.050000 0.9330 0.9350 0.9350 0.9350 0.9350
11.083191 0.9350 0.9350 0.9330 0.9330 0.9330
11.117000 0.9330 0.9330 0.9330 0.9350 0.9370
11.150191 0.9370 0.9370 0.9370 0.9370 0.9370
11.183000 0.9380 0.9380 0.9380 0.9380 0.9380
11.216191 0.9380 0.9380 0.9380 0.9380 0.9380
11.249000 0.9380 0.9380 0.9380 0.9380 0.9370
11.282191 0.9370 0.9370 0.9380 0.9380 0.9400
11.316000 0.9400 0.9400 0.9400 0.9380 0.9380
11.349191 0.9370 0.9350 0.9350 0.9350 0.9350
11.382000 0.9370 0.9370 0.9370 0.9370 0.9380
11.415191 0.9380 0.9380 0.9380 0.9400 0.9400
11.448000 0.9400 0.9400 0.9400 0.9400 0.9400
11.481191 0.9400 0.9400 0.9400 0.9400 0.9400
11.515000 0.9400 0.9400 0.9400 0.9400 0.9400
11.548191 0.9400 0.9400 0.9400 0.9400 0.9400
11.581000 0.9400 0.9400 0.9400 0.9400 0.9420
11.614191 0.9420 0.9420 0.9420 0.9420 0.9420
11.647000 0.9420 0.9430 0.9430 0.9430 0.9430
11.680191 0.9430 0.9430 0.9430 0.9430 0.9430
11.714000 0.9450 0.9470 0.9470 0.9470 0.9470
11.747191 0.9480 0.9480 0.9480 0.9480 0.9480
11.780000 0.9480 0.9480 0.9480 0.9480 0.9470
11.813191 0.9470 0.9470 0.9470 0.9470 0.9470
11.846000 0.9470 0.9470 0.9480 0.9480 0.9480
11.879191 0.9480 0.9480 0.9480 0.9480 0.9500
11.913000 0.9500 0.9500 0.9500 0.9500 0.9480
11.946191 0.9480 0.9470 0.9470 0.9450 0.9430
11.979000 0.9430 0.9420 0.9420 0.9420 0.9420
12.012191 0.9420 0.9430 0.9450 0.9450 0.9450
12.045000 0.9450 0.9470 0.9470 0.9480 0.9480
12.078191 0.9480 0.9500 0.9500 0.9500 0.9500
12.112000 0.9500 0.9500 0.9480 0.9480 0.9480
12.145191 0.9480 0.9480 0.9480 0.9480 0.9480
12.178000 0.9480 0.9480 0.9480 0.9480 0.9480
12.211191 0.9480 0.9480 0.9480 0.9480 0.9480
12.245000 0.9480 0.9500 0.9500 0.9500 0.9500
12.278191 0.9500 0.9500 0.9500 0.9480 0.9480
12.311000 0.9480 0.9480 0.9480 0.9480 0.9480
12.344191 0.9480 0.9480 0.9480 0.9470 0.9470
12.377000 0.9470 0.9470 0.9470 0.9470 0.9470
12.410191 0.9470 0.9470 0.9470 0.9480 0.9480
12.444000 0.9500 0.9500 0.9500 0.9500 0.9500
12.477191 0.9500 0.9500 0.9480 0.9480 0.9480
12.510000 0.9470 0.9470 0.9450 0.9430 0.9430
12.543191 0.9430 0.9430 0.9430 0.9430 0.9430
12.576000 0.9430 0.9430 0.9430 0.9430 0.9450
12.609191 0.9450 0.9450 0.9450 0.9430 0.9430
12.643000 0.9420 0.9420 0.9420 0.9420 0.9420
12.676191 0.9420 0.9420 0.9430 0.9430 0.9450
12.709000 0.9450 0.9470 0.9480 0.9480 0.9480
12.742191 0.9480 0.9470 0.9470 0.9470 0.9470
12.775000 0.9470 0.9470 0.9470 0.9470 0.9450
12.808191 0.9450 0.9450 0.9430 0.9430 0.9420
12.842000 0.9400 0.9370 0.9350 0.9330 0.9320
12.875191 0.9320 0.9300 0.9300 0.9300 0.9280
12.908000 0.9280 0.9270 0.9230 0.9220 0.9170
12.941191 0.9130 0.9100 0.9050 0.9020 0.9000
12.974000 0.8990 0.8950 0.8900 0.8870 0.8850
13.007191 0.8790 0.8740 0.8670 0.8640 0.8590
13.041000 0.8540 0.8490 0.8440 0.8360 0.8310
13.074191 0.8220 0.8160 0.8070 0.7990 0.7910
13.107000 0.7830 0.7730 0.7640 0.7540 0.7450
13.140191 0.7330 0.7230 0.7110 0.7010 0.6900
13.173000 0.6780 0.6670 0.6550 0.6420 0.6300
13.206191 0.6190 0.6050 0.5920 0.5810 0.5670
13.240000 0.5560 0.5430 0.5290 0.5180 0.5040
13.273191 0.4910 0.4780 0.4580 0.4480 0.4350
13.306000 0.4230 0.4080 0.3940 0.3800 0.3650
13.339191 0.3500 0.3370 0.3240 0.3110 0.2990
13.373000 0.2880 0.2760 0.2640 0.2540 0.2450
13.406191 0.2350 0.2260 0.2250 0.2160 0.2100
13.439000 0.2030 0.2000 0.1970 0.1920 0.1880
13.472191 0.1870 0.1850 0.1830 0.1830 0.1820
13.505000 0.1820 0.1820 0.1830 0.1870 0.1900
13.538191 0.1950 0.2010 0.2100 0.2180 0.2280
13.572000 0.2400 0.2500 0.2610 0.2710 0.2790
13.605191 0.2990 0.3220 0.3420 0.3490 0.3620
13.638000 0.3750 0.3820 0.3840 0.3840 0.3820
13.671191 0.3720 0.3600 0.3420 0.3310 0.3110
13.704000 0.2940 0.2790 0.2660 0.2560 0.2450
13.737191 0.2360 0.2260 0.2150 0.2030 0.1950
13.771000 0.1880 0.1830 0.1780 0.1750 0.1720
13.804191 0.1680 0.1670 0.1650 0.1650 0.1650
13.837000 0.1670 0.1680 0.1720 0.1780 0.1780
13.870191 0.1820 0.1930 0.2010 0.2130 0.2250
13.903000 0.2360 0.2450 0.2530 0.2640 0.2790
13.936191 0.2960 0.3170 0.3420 0.3570 0.3740
13.970000 0.3920 0.4100 0.4300 0.4510 0.4730
14.003191 0.4950 0.5180 0.5390 0.5620 0.5860
14.036000 0.6070 0.6290 0.6490 0.6680 0.6820
14.069191 0.6930 0.7060 0.7200 0.7310 0.7450
14.102000 0.7580 0.7710 0.7840 0.7960 0.8070
14.135191 0.8140 0.8210 0.8270 0.8360 0.8460
14.169000 0.8490 0.8500 0.8540 0.8550 0.8620
14.202191 0.8700 0.8720 0.8740 0.8740 0.8770
14.235000 0.8790 0.8790 0.8800 0.8800 0.8820
14.268191 0.8820 0.8820 0.8840 0.8840 0.8840
14.301000 0.8840 0.8840 0.8840 0.8820 0.8820
14.334191 0.8820 0.8820 0.8800 0.8800 0.8800
14.368000 0.8800 0.8800 0.8800 0.8800 0.8790
14.401191 0.8790 0.8770 0.8770 0.8750 0.8740
14.434000 0.8720 0.8700 0.8700 0.8700 0.8700
14.467191 0.8690 0.8670 0.8650 0.8640 0.8640
14.500000 0.8640 0.8640 0.8620 0.8600 0.8570
14.533191 0.8550 0.8550 0.8520 0.8520 0.8520
14.567000 0.8520 0.8520 0.8520 0.8520 0.8520
14.600191 0.8520 0.8500 0.8500 0.8490 0.8490
14.633000 0.8470 0.8470 0.8460 0.8440 0.8420
14.666191 0.8410 0.8390 0.8370 0.8360 0.8360
14.700000 0.8340 0.8340 0.8320 0.8310 0.8310
14.733191 0.8310 0.8310 0.8310 0.8310 0.8320
14.766000 0.8320 0.8320 0.8320 0.8320 0.8320
14.799191 0.8320 0.8310 0.8270 0.8240 0.8220
14.832000 0.8210 0.8210 0.8220 0.8240 0.8240
14.865191 0.8260 0.8260 0.8270 0.8270 0.8270
14.899000 0.8260 0.8260 0.8260 0.8270 0.8270
14.932191 0.8270 0.8270 0.8270 0.8290 0.8290
14.965000 0.8290 0.8290 0.8270 0.8270 0.8260
14.998191 0.8220 0.8210 0.8160 0.8090 0.8020
15.031000 0.8010 0.7980 0.7980 0.7960 0.7910
15.064191 0.7880 0.7860 0.7860 0.7860 0.7880
15.098000 0.7940 0.7980 0.7990 0.8010 0.8070
15.131191 0.8090 0.8160 0.8190 0.8190 0.8210
15.164000 0.8220 0.8240 0.8290 0.8310 0.8320
15.197191 0.8320 0.8320 0.8320 0.8310 0.8310
15.230000 0.8290 0.8290 0.8290 0.8270 0.8270
15.263191 0.8260 0.8260 0.8240 0.8240 0.8240
15.297000 0.8220 0.8220 0.8210 0.8190 0.8190
15.330191 0.8190 0.8170 0.8170 0.8160 0.8160
15.363000 0.8140 0.8140 0.8120 0.8120 0.8120
15.396191 0.8120 0.8110 0.8110 0.8110 0.8110
15.429000 0.8110 0.8110 0.8110 0.8110 0.8090
15.462191 0.8090 0.8090 0.8070 0.8070 0.8070
15.496000 0.8070 0.8070 0.8070 0.8070 0.8070
15.529191 0.8070 0.8070 0.8060 0.8060 0.8060
15.562000 0.8060 0.8060 0.8060 0.8060 0.8060
15.595191 0.8070 0.8070 0.8090 0.8110 0.8120
15.628000 0.8120 0.8120 0.8120 0.8110 0.8090
15.661191 0.8070 0.8070 0.8090 0.8110 0.8120
15.695000 0.8120 0.8120 0.8110 0.8090 0.8070
15.728191 0.8060 0.8060 0.8040 0.8020 0.8010
15.761000 0.8010 0.8010 0.8010 0.8020 0.8020
15.794191 0.8040 0.8040 0.8040 0.8040 0.8040
15.827000 0.8040 0.8040 0.8020 0.8010 0.8010
15.860191 0.8010 0.7990 0.7990 0.7980 0.7980
15.894000 0.7980 0.7960 0.7960 0.7940 0.7940
15.927191 0.7940 0.7930 0.7930 0.7930 0.7910
15.960000 0.7910 0.7910 0.7890 0.7890 0.7890
15.993191 0.7880 0.7860
##END=
