##TITLE=Ethylarsonic acid
##JCAMP-DX=4.24
$$ By DXEDIT 1.05 (RS McDonald)
##DATA TYPE=INFRARED SPECTRUM
##CLASS=COBLENTZ III
##ORIGIN=DOW CHEMICAL COMPANY
##OWNER=COPYRIGHT (C) 1988 by COBLENTZ SOCIETY INC.
Collection (C) 2018 copyright by the U.S. Secretary of Commerce
on behalf of the United States of America. All rights reserved.
##DATE=1964/04/03
##CAS REGISTRY NO=507-32-4
##MOLFORM=C2 H7 As O3
##SOURCE REFERENCE=COBLENTZ NO. 06647
##$NIST SOURCE=COBLENTZ
##$NIST IMAGE=cob6647
##SPECTROMETER/DATA SYSTEM=DOW KBr FOREPRISM-GRATING
##INSTRUMENT PARAMETERS=BLAZED AT 3.5, 12.0, 20.0 MICRON AND CHANGED AT 5.0, 7.5, 14.9 MICRON
##STATE=SOLID (SPLIT MULL)
$$SPECTRAL CONTAMINATION DUE TO H2O AROUND 3500 CM^-^1
##SAMPLING PROCEDURE=TRANSMISSION
##RESOLUTION=2
##DATA PROCESSING=DIGITIZED BY COBLENTZ SOCIETY (BATCH I) FROM HARD COPY
##XUNITS=1/CM
##YUNITS=TRANSMITTANCE
##XFACTOR=1
##YFACTOR=1
##DELTAX=1
##FIRSTX=3800
##LASTX=448
##FIRSTY=0.99
##MAXX=3800
##MINX=448
##MAXY=1.0018
##MINY=0.0441
##NPOINTS=3353
##XYDATA=(X++(Y..Y))
3800.000000 0.9900 0.9900 0.9900 0.9900 0.9901
3795.000000 0.9901 0.9902 0.9902 0.9902 0.9902
3790.000000 0.9903 0.9903 0.9904 0.9904 0.9905
3785.000000 0.9905 0.9905 0.9905 0.9906 0.9906
3780.000000 0.9907 0.9907 0.9908 0.9908 0.9908
3775.000000 0.9908 0.9909 0.9909 0.9910 0.9910
3770.000000 0.9911 0.9911 0.9911 0.9911 0.9912
3765.000000 0.9914 0.9916 0.9918 0.9921 0.9924
3760.000000 0.9927 0.9928 0.9932 0.9934 0.9937
3755.000000 0.9940 0.9943 0.9945 0.9948 0.9950
3750.000000 0.9952 0.9953 0.9955 0.9957 0.9959
3745.000000 0.9961 0.9963 0.9965 0.9967 0.9968
3740.000000 0.9971 0.9971 0.9974 0.9975 0.9977
3735.000000 0.9978 0.9981 0.9982 0.9984 0.9985
3730.000000 0.9987 0.9989 0.9991 0.9992 0.9994
3725.000000 0.9995 0.9997 0.9998 0.9999 0.9999
3720.000000 1.0013 1.0001 1.0002 1.0002 1.0003
3715.000000 1.0004 1.0005 1.0006 1.0008 1.0009
3710.000000 1.0010 1.0011 1.0013 1.0014 1.0016
3705.000000 1.0017 1.0018 1.0018 1.0018 1.0017
3700.000000 1.0017 1.0016 1.0015 1.0013 1.0012
3695.000000 1.0008 1.0004 1.0000 0.9996 0.9991
3690.000000 0.9987 0.9978 0.9968 0.9959 0.9950
3685.000000 0.9940 0.9931 0.9921 0.9912 0.9907
3680.000000 0.9903 0.9905 0.9907 0.9911 0.9916
3675.000000 0.9923 0.9930 0.9937 0.9944 0.9948
3670.000000 0.9952 0.9954 0.9956 0.9958 0.9961
3665.000000 0.9963 0.9965 0.9966 0.9968 0.9968
3660.000000 0.9968 0.9968 0.9968 0.9968 0.9968
3655.000000 0.9967 0.9967 0.9967 0.9967 0.9966
3650.000000 0.9966 0.9963 0.9961 0.9958 0.9956
3645.000000 0.9954 0.9952 0.9949 0.9947 0.9945
3640.000000 0.9943 0.9939 0.9936 0.9930 0.9925
3635.000000 0.9920 0.9915 0.9910 0.9905 0.9899
3630.000000 0.9893 0.9884 0.9875 0.9866 0.9858
3625.000000 0.9849 0.9840 0.9831 0.9823 0.9814
3620.000000 0.9805 0.9795 0.9786 0.9775 0.9766
3615.000000 0.9756 0.9746 0.9735 0.9725 0.9715
3610.000000 0.9705 0.9693 0.9682 0.9668 0.9656
3605.000000 0.9643 0.9630 0.9617 0.9604 0.9591
3600.000000 0.9578 0.9565 0.9552 0.9539 0.9525
3595.000000 0.9511 0.9496 0.9481 0.9466 0.9451
3590.000000 0.9436 0.9421 0.9409 0.9395 0.9382
3585.000000 0.9368 0.9356 0.9342 0.9328 0.9316
3580.000000 0.9303 0.9290 0.9277 0.9265 0.9253
3575.000000 0.9243 0.9233 0.9221 0.9212 0.9202
3570.000000 0.9192 0.9181 0.9171 0.9160 0.9150
3565.000000 0.9143 0.9137 0.9131 0.9125 0.9118
3560.000000 0.9112 0.9106 0.9100 0.9095 0.9090
3555.000000 0.9086 0.9082 0.9078 0.9074 0.9068
3550.000000 0.9065 0.9061 0.9057 0.9052 0.9048
3545.000000 0.9044 0.9040 0.9037 0.9034 0.9031
3540.000000 0.9028 0.9025 0.9023 0.9020 0.9017
3535.000000 0.9014 0.9011 0.9008 0.9005 0.9002
3530.000000 0.8999 0.8996 0.8994 0.8991 0.8988
3525.000000 0.8985 0.8983 0.8981 0.8978 0.8977
3520.000000 0.8975 0.8973 0.8971 0.8970 0.8968
3515.000000 0.8966 0.8964 0.8962 0.8961 0.8959
3510.000000 0.8957 0.8955 0.8953 0.8952 0.8952
3505.000000 0.8952 0.8952 0.8951 0.8951 0.8950
3500.000000 0.8950 0.8950 0.8950 0.8949 0.8949
3495.000000 0.8948 0.8948 0.8948 0.8948 0.8947
3490.000000 0.8947 0.8946 0.8946 0.8947 0.8949
3485.000000 0.8951 0.8953 0.8954 0.8956 0.8958
3480.000000 0.8960 0.8961 0.8963 0.8964 0.8966
3475.000000 0.8968 0.8971 0.8974 0.8978 0.8982
3470.000000 0.8986 0.8989 0.8993 0.8997 0.9001
3465.000000 0.9004 0.9008 0.9012 0.9016 0.9018
3460.000000 0.9023 0.9027 0.9031 0.9034 0.9038
3455.000000 0.9041 0.9045 0.9048 0.9052 0.9055
3450.000000 0.9059 0.9062 0.9066 0.9068 0.9073
3445.000000 0.9075 0.9080 0.9084 0.9088 0.9091
3440.000000 0.9095 0.9098 0.9102 0.9105 0.9109
3435.000000 0.9112 0.9116 0.9118 0.9123 0.9125
3430.000000 0.9128 0.9132 0.9136 0.9139 0.9142
3425.000000 0.9145 0.9149 0.9152 0.9155 0.9158
3420.000000 0.9162 0.9165 0.9168 0.9171 0.9175
3415.000000 0.9178 0.9181 0.9184 0.9188 0.9191
3410.000000 0.9194 0.9197 0.9201 0.9204 0.9207
3405.000000 0.9210 0.9214 0.9217 0.9220 0.9223
3400.000000 0.9227 0.9230 0.9233 0.9236 0.9239
3395.000000 0.9242 0.9246 0.9249 0.9252 0.9256
3390.000000 0.9260 0.9263 0.9267 0.9270 0.9274
3385.000000 0.9278 0.9282 0.9285 0.9289 0.9292
3380.000000 0.9296 0.9299 0.9303 0.9307 0.9311
3375.000000 0.9314 0.9318 0.9321 0.9325 0.9328
3370.000000 0.9331 0.9333 0.9336 0.9339 0.9342
3365.000000 0.9344 0.9347 0.9350 0.9353 0.9355
3360.000000 0.9358 0.9360 0.9363 0.9366 0.9368
3355.000000 0.9370 0.9371 0.9371 0.9373 0.9373
3350.000000 0.9374 0.9375 0.9375 0.9377 0.9378
3345.000000 0.9378 0.9378 0.9380 0.9381 0.9381
3340.000000 0.9381 0.9381 0.9381 0.9381 0.9382
3335.000000 0.9382 0.9382 0.9382 0.9382 0.9382
3330.000000 0.9382 0.9382 0.9381 0.9380 0.9380
3325.000000 0.9378 0.9378 0.9378 0.9378 0.9377
3320.000000 0.9375 0.9375 0.9375 0.9374 0.9374
3315.000000 0.9373 0.9373 0.9371 0.9370 0.9368
3310.000000 0.9366 0.9364 0.9363 0.9361 0.9359
3305.000000 0.9357 0.9404 0.9354 0.9352 0.9349
3300.000000 0.9347 0.9343 0.9340 0.9336 0.9332
3295.000000 0.9328 0.9324 0.9320 0.9316 0.9311
3290.000000 0.9307 0.9300 0.9294 0.9287 0.9281
3285.000000 0.9274 0.9268 0.9261 0.9255 0.9248
3280.000000 0.9242 0.9236 0.9230 0.9224 0.9218
3275.000000 0.9211 0.9205 0.9199 0.9193 0.9187
3270.000000 0.9181 0.9174 0.9168 0.9161 0.9155
3265.000000 0.9147 0.9140 0.9132 0.9125 0.9117
3260.000000 0.9109 0.9100 0.9092 0.9083 0.9075
3255.000000 0.9066 0.9057 0.9048 0.9040 0.9031
3250.000000 0.9023 0.9014 0.9006 0.8997 0.8989
3245.000000 0.8980 0.8971 0.8963 0.8954 0.8944
3240.000000 0.8935 0.8925 0.8916 0.8906 0.8897
3235.000000 0.8887 0.8878 0.8868 0.8860 0.8850
3230.000000 0.8841 0.8832 0.8823 0.8814 0.8806
3225.000000 0.8796 0.8786 0.8775 0.8766 0.8756
3220.000000 0.8746 0.8736 0.8725 0.8716 0.8706
3215.000000 0.8696 0.8686 0.8675 0.8666 0.8653
3210.000000 0.8641 0.8625 0.8612 0.8600 0.8589
3205.000000 0.8577 0.8566 0.8554 0.8543 0.8531
3200.000000 0.8520 0.8508 0.8497 0.8485 0.8473
3195.000000 0.8458 0.8443 0.8425 0.8408 0.8390
3190.000000 0.8373 0.8355 0.8337 0.8318 0.8300
3185.000000 0.8281 0.8263 0.8244 0.8225 0.8206
3180.000000 0.8188 0.8168 0.8150 0.8132 0.8115
3175.000000 0.8097 0.8078 0.8061 0.8044 0.8025
3170.000000 0.8008 0.7991 0.7974 0.7958 0.7942
3165.000000 0.7925 0.7910 0.7894 0.7878 0.7861
3160.000000 0.7846 0.7830 0.7814 0.7797 0.7781
3155.000000 0.7761 0.7744 0.7725 0.7707 0.7688
3150.000000 0.7669 0.7651 0.7632 0.7610 0.7588
3145.000000 0.7565 0.7545 0.7522 0.7501 0.7478
3140.000000 0.7458 0.7436 0.7414 0.7392 0.7369
3135.000000 0.7348 0.7326 0.7305 0.7283 0.7261
3130.000000 0.7239 0.7218 0.7199 0.7178 0.7158
3125.000000 0.7138 0.7118 0.7098 0.7078 0.7058
3120.000000 0.7038 0.7017 0.6997 0.6976 0.6957
3115.000000 0.6937 0.6917 0.6896 0.6875 0.6856
3110.000000 0.6836 0.6815 0.6795 0.6775 0.6755
3105.000000 0.6735 0.6715 0.6695 0.6675 0.6655
3100.000000 0.6635 0.6615 0.6595 0.6575 0.6555
3095.000000 0.6535 0.6515 0.6495 0.6475 0.6455
3090.000000 0.6435 0.6415 0.6398 0.6380 0.6362
3085.000000 0.6346 0.6329 0.6310 0.6294 0.6276
3080.000000 0.6259 0.6241 0.6224 0.6204 0.6185
3075.000000 0.6165 0.6145 0.6125 0.6105 0.6085
3070.000000 0.6065 0.6045 0.6025 0.6005 0.5985
3065.000000 0.5965 0.5945 0.5925 0.5906 0.5887
3060.000000 0.5868 0.5849 0.5830 0.5810 0.5792
3055.000000 0.5773 0.5754 0.5734 0.5715 0.5696
3050.000000 0.5677 0.5659 0.5641 0.5623 0.5605
3045.000000 0.5586 0.5568 0.5550 0.5532 0.5512
3040.000000 0.5495 0.5477 0.5459 0.5440 0.5422
3035.000000 0.5402 0.5383 0.5362 0.5344 0.5324
3030.000000 0.5305 0.5289 0.5274 0.5259 0.5244
3025.000000 0.5229 0.5214 0.5199 0.5184 0.5169
3020.000000 0.5155 0.5140 0.5125 0.5108 0.5092
3015.000000 0.5074 0.5057 0.5040 0.5023 0.5005
3010.000000 0.4988 0.4970 0.4953 0.4936 0.4919
3005.000000 0.4901 0.4883 0.4864 0.4846 0.4827
3000.000000 0.4809 0.4788 0.4768 0.4744 0.4720
2995.000000 0.4696 0.4672 0.4652 0.4632 0.4612
2990.000000 0.4592 0.4572 0.4553 0.4533 0.4512
2985.000000 0.4485 0.4458 0.4416 0.4375 0.4007
2980.000000 0.3640 0.3638 0.3636 0.3727 0.3818
2975.000000 0.3942 0.4064 0.4142 0.4219 0.4236
2970.000000 0.4254 0.4264 0.4275 0.4279 0.4284
2965.000000 0.4284 0.4284 0.4283 0.4282 0.4274
2960.000000 0.4267 0.4255 0.4243 0.4222 0.4202
2955.000000 0.4167 0.4132 0.4086 0.4041 0.3888
2950.000000 0.3734 0.3703 0.3671 0.3666 0.3662
2945.000000 0.3662 0.3660 0.3664 0.3670 0.3678
2940.000000 0.3686 0.3700 0.3716 0.3729 0.3742
2935.000000 0.3755 0.3768 0.3780 0.3795 0.3798
2930.000000 0.3800 0.3804 0.3807 0.3807 0.3807
2925.000000 0.3803 0.3800 0.3796 0.3793 0.3784
2920.000000 0.3775 0.3762 0.3750 0.3739 0.3728
2915.000000 0.3716 0.3707 0.3697 0.3687 0.3678
2910.000000 0.3670 0.3662 0.3656 0.3650 0.3647
2905.000000 0.3642 0.3637 0.3632 0.3630 0.3630
2900.000000 0.3630 0.3628 0.3626 0.3623 0.3621
2895.000000 0.3616 0.3612 0.3602 0.3593 0.3566
2890.000000 0.3540 0.3452 0.3364 0.3268 0.3175
2885.000000 0.3172 0.3173 0.3173 0.3178 0.3189
2880.000000 0.3200 0.3210 0.3221 0.3230 0.3240
2875.000000 0.3250 0.3262 0.3268 0.3276 0.3280
2870.000000 0.3287 0.3288 0.3288 0.3289 0.3288
2865.000000 0.3284 0.3282 0.3274 0.3266 0.3259
2860.000000 0.3252 0.3246 0.3240 0.3232 0.3227
2855.000000 0.3221 0.3214 0.3209 0.3203 0.3196
2850.000000 0.3190 0.3184 0.3178 0.3172 0.3166
2845.000000 0.3160 0.3154 0.3147 0.3141 0.3134
2840.000000 0.3128 0.3121 0.3115 0.3109 0.3103
2835.000000 0.3096 0.3090 0.3083 0.3077 0.3070
2830.000000 0.3064 0.3058 0.3053 0.3048 0.3043
2825.000000 0.3038 0.3033 0.3027 0.3022 0.3017
2820.000000 0.3012 0.3007 0.3002 0.2997 0.2992
2815.000000 0.2985 0.2981 0.2976 0.2971 0.2966
2810.000000 0.2961 0.2956 0.2952 0.2948 0.2945
2805.000000 0.2941 0.2938 0.2934 0.2930 0.2926
2800.000000 0.2923 0.2919 0.2915 0.2911 0.2908
2795.000000 0.2904 0.2900 0.2896 0.2893 0.2890
2790.000000 0.2887 0.2884 0.2882 0.2880 0.2878
2785.000000 0.2875 0.2873 0.2870 0.2868 0.2866
2780.000000 0.2864 0.2861 0.2859 0.2857 0.2855
2775.000000 0.2852 0.2850 0.2848 0.2846 0.2844
2770.000000 0.2842 0.2840 0.2838 0.2835 0.2834
2765.000000 0.2833 0.2831 0.2829 0.2827 0.2825
2760.000000 0.2824 0.2822 0.2820 0.2818 0.2816
2755.000000 0.2814 0.2813 0.2812 0.2812 0.2811
2750.000000 0.2811 0.2810 0.2810 0.2809 0.2809
2745.000000 0.2808 0.2808 0.2808 0.2808 0.2807
2740.000000 0.2807 0.2806 0.2806 0.2805 0.2805
2735.000000 0.2804 0.2804 0.2803 0.2803 0.2802
2730.000000 0.2802 0.2802 0.2802 0.2802 0.2803
2725.000000 0.2803 0.2804 0.2804 0.2805 0.2805
2720.000000 0.2806 0.2806 0.2806 0.2806 0.2807
2715.000000 0.2807 0.2808 0.2808 0.2809 0.2809
2710.000000 0.2810 0.2810 0.2810 0.2810 0.2811
2705.000000 0.2812 0.2814 0.2815 0.2816 0.2817
2700.000000 0.2819 0.2820 0.2821 0.2822 0.2824
2695.000000 0.2825 0.2826 0.2827 0.2829 0.2831
2690.000000 0.2834 0.2837 0.2840 0.2842 0.2845
2685.000000 0.2848 0.2851 0.2854 0.2857 0.2859
2680.000000 0.2862 0.2865 0.2868 0.2871 0.2875
2675.000000 0.2879 0.2883 0.2885 0.2890 0.2894
2670.000000 0.2898 0.2901 0.2905 0.2909 0.2913
2665.000000 0.2916 0.2920 0.2924 0.2928 0.2931
2660.000000 0.2934 0.2939 0.2943 0.2947 0.2952
2655.000000 0.2956 0.2960 0.2964 0.2969 0.2973
2650.000000 0.2978 0.2982 0.2985 0.2990 0.2995
2645.000000 0.3001 0.3008 0.3015 0.3022 0.3028
2640.000000 0.3034 0.3042 0.3049 0.3056 0.3063
2635.000000 0.3069 0.3076 0.3083 0.3090 0.3097
2630.000000 0.3104 0.3111 0.3119 0.3129 0.3140
2625.000000 0.3150 0.3161 0.3171 0.3182 0.3192
2620.000000 0.3202 0.3212 0.3225 0.3237 0.3249
2615.000000 0.3260 0.3273 0.3284 0.3297 0.3309
2610.000000 0.3321 0.3332 0.3346 0.3358 0.3370
2605.000000 0.3382 0.3394 0.3406 0.3418 0.3432
2600.000000 0.3449 0.3464 0.3480 0.3495 0.3510
2595.000000 0.3526 0.3542 0.3557 0.3573 0.3588
2590.000000 0.3604 0.3618 0.3634 0.3648 0.3662
2585.000000 0.3676 0.3690 0.3703 0.3716 0.3730
2580.000000 0.3744 0.3758 0.3772 0.3784 0.3799
2575.000000 0.3812 0.3826 0.3839 0.3852 0.3864
2570.000000 0.3878 0.3891 0.3905 0.3918 0.3930
2565.000000 0.3944 0.3958 0.3971 0.3984 0.3997
2560.000000 0.4009 0.4023 0.4036 0.4049 0.4062
2555.000000 0.4075 0.4088 0.4100 0.4112 0.4126
2550.000000 0.4139 0.4152 0.4165 0.4178 0.4191
2545.000000 0.4203 0.4216 0.4229 0.4242 0.4255
2540.000000 0.4268 0.4281 0.4294 0.4307 0.4320
2535.000000 0.4333 0.4346 0.4359 0.4372 0.4384
2530.000000 0.4397 0.4409 0.4422 0.4434 0.4446
2525.000000 0.4458 0.4470 0.4482 0.4495 0.4507
2520.000000 0.4519 0.4529 0.4540 0.4549 0.4559
2515.000000 0.4568 0.4577 0.4586 0.4595 0.4604
2510.000000 0.4614 0.4623 0.4632 0.4641 0.4650
2505.000000 0.4659 0.4668 0.4677 0.4686 0.4694
2500.000000 0.4702 0.4709 0.4716 0.4723 0.4730
2495.000000 0.4737 0.4744 0.4751 0.4758 0.4762
2490.000000 0.4769 0.4774 0.4780 0.4785 0.4791
2485.000000 0.4795 0.4800 0.4803 0.4806 0.4808
2480.000000 0.4810 0.4812 0.4816 0.4817 0.4819
2475.000000 0.4820 0.4821 0.4822 0.4823 0.4824
2470.000000 0.4825 0.4825 0.4825 0.4825 0.4825
2465.000000 0.4825 0.4825 0.4825 0.4825 0.4824
2460.000000 0.4824 0.4823 0.4822 0.4821 0.4820
2455.000000 0.4819 0.4818 0.4816 0.4815 0.4812
2450.000000 0.4810 0.4807 0.4805 0.4802 0.4799
2445.000000 0.4794 0.4790 0.4784 0.4779 0.4773
2440.000000 0.4767 0.4760 0.4756 0.4750 0.4744
2435.000000 0.4738 0.4732 0.4726 0.4721 0.4715
2430.000000 0.4710 0.4704 0.4698 0.4681 0.4665
2425.000000 0.4649 0.4633 0.4617 0.4602 0.4586
2420.000000 0.4571 0.4551 0.4531 0.4510 0.4492
2415.000000 0.4475 0.4458 0.4435 0.4412 0.4390
2410.000000 0.4368 0.4349 0.4331 0.4312 0.4294
2405.000000 0.4275 0.4257 0.4238 0.4220 0.4201
2400.000000 0.4183 0.4164 0.4146 0.4125 0.4105
2395.000000 0.4082 0.4059 0.4037 0.4014 0.3992
2390.000000 0.3970 0.3947 0.3925 0.3902 0.3879
2385.000000 0.3855 0.3832 0.3809 0.3786 0.3762
2380.000000 0.3739 0.3712 0.3688 0.3662 0.3636
2375.000000 0.3609 0.3584 0.3558 0.3532 0.3509
2370.000000 0.3484 0.3460 0.3437 0.3412 0.3389
2365.000000 0.3366 0.3344 0.3321 0.3299 0.3276
2360.000000 0.3254 0.3230 0.3208 0.3188 0.3168
2355.000000 0.3150 0.3132 0.3114 0.3096 0.3078
2350.000000 0.3061 0.3043 0.3026 0.3010 0.2995
2345.000000 0.2979 0.2963 0.2947 0.2932 0.2916
2340.000000 0.2900 0.2883 0.2867 0.2856 0.2846
2335.000000 0.2837 0.2829 0.2820 0.2811 0.2803
2330.000000 0.2796 0.2788 0.2781 0.2774 0.2767
2325.000000 0.2762 0.2758 0.2753 0.2748 0.2743
2320.000000 0.2739 0.2733 0.2727 0.2721 0.2716
2315.000000 0.2712 0.2708 0.2707 0.2706 0.2705
2310.000000 0.2704 0.2703 0.2703 0.2703 0.2703
2305.000000 0.2703 0.2703 0.2702 0.2702 0.2702
2300.000000 0.2702 0.2702 0.2702 0.2702 0.2702
2295.000000 0.2705 0.2708 0.2711 0.2715 0.2719
2290.000000 0.2723 0.2726 0.2730 0.2734 0.2738
2285.000000 0.2745 0.2753 0.2760 0.2768 0.2775
2280.000000 0.2783 0.2790 0.2798 0.2805 0.2813
2275.000000 0.2825 0.2837 0.2849 0.2861 0.2873
2270.000000 0.2885 0.2898 0.2911 0.2924 0.2938
2265.000000 0.2955 0.2972 0.2988 0.3005 0.3022
2260.000000 0.3039 0.3055 0.3072 0.3091 0.3111
2255.000000 0.3130 0.3149 0.3168 0.3188 0.3207
2250.000000 0.3227 0.3246 0.3266 0.3288 0.3309
2245.000000 0.3332 0.3357 0.3380 0.3404 0.3427
2240.000000 0.3450 0.3474 0.3498 0.3523 0.3548
2235.000000 0.3572 0.3597 0.3622 0.3647 0.3671
2230.000000 0.3696 0.3714 0.3732 0.3749 0.3764
2225.000000 0.3780 0.3796 0.3810 0.3827 0.3843
2220.000000 0.3859 0.3876 0.3894 0.3912 0.3932
2215.000000 0.3953 0.3973 0.3992 0.4012 0.4028
2210.000000 0.4045 0.4059 0.4074 0.4088 0.4102
2205.000000 0.4116 0.4131 0.4145 0.4160 0.4174
2200.000000 0.4189 0.4203 0.4217 0.4231 0.4246
2195.000000 0.4264 0.4282 0.4300 0.4318 0.4336
2190.000000 0.4354 0.4372 0.4390 0.4409 0.4428
2185.000000 0.4450 0.4473 0.4495 0.4518 0.4540
2180.000000 0.4562 0.4585 0.4608 0.4630 0.4653
2175.000000 0.4675 0.4697 0.4716 0.4736 0.4754
2170.000000 0.4773 0.4791 0.4810 0.4828 0.4847
2165.000000 0.4866 0.4885 0.4904 0.4923 0.4946
2160.000000 0.4970 0.4994 0.5018 0.5042 0.5066
2155.000000 0.5090 0.5114 0.5133 0.5152 0.5168
2150.000000 0.5185 0.5201 0.5217 0.5233 0.5250
2145.000000 0.5266 0.5282 0.5298 0.5314 0.5330
2140.000000 0.5347 0.5362 0.5380 0.5397 0.5414
2135.000000 0.5430 0.5447 0.5462 0.5480 0.5497
2130.000000 0.5514 0.5529 0.5545 0.5558 0.5572
2125.000000 0.5585 0.5599 0.5612 0.5626 0.5639
2120.000000 0.5653 0.5666 0.5680 0.5693 0.5706
2115.000000 0.5719 0.5733 0.5746 0.5759 0.5770
2110.000000 0.5782 0.5794 0.5806 0.5817 0.5829
2105.000000 0.5841 0.5853 0.5864 0.5876 0.5887
2100.000000 0.5899 0.5910 0.5923 0.5934 0.5946
2095.000000 0.5957 0.5969 0.5980 0.5992 0.6003
2090.000000 0.6015 0.6026 0.6037 0.6047 0.6057
2085.000000 0.6067 0.6077 0.6087 0.6097 0.6107
2080.000000 0.6117 0.6127 0.6137 0.6147 0.6157
2075.000000 0.6166 0.6176 0.6185 0.6195 0.6204
2070.000000 0.6212 0.6223 0.6233 0.6239 0.6246
2065.000000 0.6252 0.6259 0.6265 0.6272 0.6278
2060.000000 0.6285 0.6291 0.6298 0.6304 0.6310
2055.000000 0.6316 0.6323 0.6329 0.6335 0.6342
2050.000000 0.6349 0.6356 0.6364 0.6371 0.6379
2045.000000 0.6386 0.6394 0.6401 0.6410 0.6417
2040.000000 0.6425 0.6433 0.6441 0.6449 0.6457
2035.000000 0.6465 0.6474 0.6481 0.6489 0.6496
2030.000000 0.6504 0.6511 0.6518 0.6525 0.6534
2025.000000 0.6541 0.6549 0.6556 0.6564 0.6571
2020.000000 0.6578 0.6585 0.6592 0.6597 0.6601
2015.000000 0.6607 0.6612 0.6615 0.6618 0.6618
2010.000000 0.6618 0.6619 0.6621 0.6621 0.6622
2005.000000 0.6622 0.6624 0.6624 0.6624 0.6628
2000.000000 0.6633 0.6696 0.6758 0.6768 0.6767
1995.000000 0.6692 0.6617 0.6580 0.6590 0.6624
1990.000000 0.6658 0.6689 0.6715 0.6743 0.6758
1985.000000 0.6758 0.6760 0.6761 0.6761 0.6762
1980.000000 0.6765 0.6765 0.6768 0.6769 0.6771
1975.000000 0.6772 0.6774 0.6775 0.6778 0.6780
1970.000000 0.6783 0.6785 0.6787 0.6789 0.6792
1965.000000 0.6793 0.6795 0.6797 0.6799 0.6801
1960.000000 0.6801 0.6804 0.6806 0.6808 0.6808
1955.000000 0.6810 0.6811 0.6811 0.6811 0.6812
1950.000000 0.6814 0.6815 0.6815 0.6815 0.6817
1945.000000 0.6818 0.6818 0.6818 0.6819 0.6821
1940.000000 0.6821 0.6825 0.6828 0.6832 0.6835
1935.000000 0.6839 0.6842 0.6845 0.6849 0.6851
1930.000000 0.6856 0.6858 0.6862 0.6865 0.6868
1925.000000 0.6871 0.6875 0.6878 0.6881 0.6884
1920.000000 0.6887 0.6891 0.6894 0.6897 0.6900
1915.000000 0.6904 0.6907 0.6911 0.6914 0.6917
1910.000000 0.6921 0.6924 0.6925 0.6926 0.6928
1905.000000 0.6930 0.6931 0.6932 0.6934 0.6935
1900.000000 0.6936 0.6937 0.6939 0.6940 0.6941
1895.000000 0.6908 0.6937 0.6935 0.6933 0.6930
1890.000000 0.6928 0.6924 0.6918 0.6914 0.6908
1885.000000 0.6904 0.6899 0.6893 0.6884 0.6872
1880.000000 0.6861 0.6854 0.6848 0.6841 0.6835
1875.000000 0.6828 0.6822 0.6818 0.6811 0.6807
1870.000000 0.6801 0.6795 0.6789 0.6783 0.6776
1865.000000 0.6769 0.6761 0.6751 0.6742 0.6734
1860.000000 0.6728 0.6721 0.6715 0.6708 0.6703
1855.000000 0.6696 0.6690 0.6684 0.6676 0.6671
1850.000000 0.6665 0.6658 0.6653 0.6648 0.6642
1845.000000 0.6637 0.6632 0.6626 0.6621 0.6617
1840.000000 0.6611 0.6606 0.6601 0.6594 0.6586
1835.000000 0.6576 0.6568 0.6560 0.6551 0.6543
1830.000000 0.6534 0.6525 0.6515 0.6507 0.6500
1825.000000 0.6494 0.6489 0.6484 0.6478 0.6472
1820.000000 0.6468 0.6462 0.6458 0.6453 0.6448
1815.000000 0.6445 0.6441 0.6438 0.6434 0.6431
1810.000000 0.6428 0.6428 0.6430 0.6432 0.6434
1805.000000 0.6435 0.6437 0.6439 0.6440 0.6442
1800.000000 0.6445 0.6447 0.6449 0.6451 0.6454
1795.000000 0.6456 0.6458 0.6460 0.6461 0.6465
1790.000000 0.6467 0.6468 0.6468 0.6471 0.6471
1785.000000 0.6472 0.6475 0.6475 0.6476 0.6478
1780.000000 0.6480 0.6481 0.6483 0.6484 0.6486
1775.000000 0.6487 0.6489 0.6490 0.6492 0.6492
1770.000000 0.6493 0.6492 0.6489 0.6486 0.6483
1765.000000 0.6480 0.6471 0.6464 0.6456 0.6449
1760.000000 0.6441 0.6435 0.6428 0.6422 0.6417
1755.000000 0.6411 0.6405 0.6399 0.6393 0.6388
1750.000000 0.6382 0.6376 0.6370 0.6364 0.6358
1745.000000 0.6352 0.6346 0.6340 0.6335 0.6331
1740.000000 0.6326 0.6322 0.6317 0.6312 0.6308
1735.000000 0.6304 0.6299 0.6295 0.6290 0.6285
1730.000000 0.6280 0.6275 0.6270 0.6265 0.6260
1725.000000 0.6255 0.6250 0.6245 0.6241 0.6237
1720.000000 0.6234 0.6230 0.6226 0.6222 0.6217
1715.000000 0.6212 0.6206 0.6201 0.6195 0.6189
1710.000000 0.6183 0.6177 0.6171 0.6167 0.6165
1705.000000 0.6164 0.6162 0.6160 0.6159 0.6157
1700.000000 0.6155 0.6153 0.6148 0.6143 0.6138
1695.000000 0.6133 0.6128 0.6123 0.6118 0.6112
1690.000000 0.6108 0.6103 0.6100 0.6097 0.6094
1685.000000 0.6091 0.6088 0.6086 0.6083 0.6080
1680.000000 0.6077 0.6074 0.6071 0.6069 0.6067
1675.000000 0.6065 0.6062 0.6062 0.6060 0.6058
1670.000000 0.6056 0.6055 0.6050 0.6046 0.6042
1665.000000 0.6037 0.6033 0.6029 0.6024 0.6020
1660.000000 0.6016 0.6010 0.6003 0.5997 0.5990
1655.000000 0.5984 0.5978 0.5971 0.5965 0.5958
1650.000000 0.5952 0.5946 0.5940 0.5935 0.5929
1645.000000 0.5923 0.5917 0.5912 0.5907 0.5903
1640.000000 0.5898 0.5893 0.5888 0.5884 0.5883
1635.000000 0.5881 0.5879 0.5877 0.5876 0.5874
1630.000000 0.5872 0.5870 0.5870 0.5871 0.5871
1625.000000 0.5871 0.5871 0.5871 0.5871 0.5872
1620.000000 0.5872 0.5873 0.5875 0.5876 0.5878
1615.000000 0.5880 0.5882 0.5884 0.5886 0.5891
1610.000000 0.5897 0.5903 0.5909 0.5915 0.5920
1605.000000 0.5927 0.5938 0.5950 0.5960 0.5973
1600.000000 0.5984 0.5995 0.6007 0.6018 0.6031
1595.000000 0.6043 0.6055 0.6068 0.6080 0.6092
1590.000000 0.6105 0.6119 0.6134 0.6148 0.6162
1585.000000 0.6177 0.6192 0.6206 0.6219 0.6231
1580.000000 0.6244 0.6256 0.6268 0.6281 0.6297
1575.000000 0.6314 0.6331 0.6348 0.6365 0.6382
1570.000000 0.6397 0.6411 0.6425 0.6440 0.6454
1565.000000 0.6468 0.6482 0.6496 0.6511 0.6525
1560.000000 0.6539 0.6553 0.6567 0.6582 0.6596
1555.000000 0.6610 0.6624 0.6638 0.6651 0.6667
1550.000000 0.6681 0.6695 0.6708 0.6722 0.6737
1545.000000 0.6751 0.6765 0.6780 0.6794 0.6808
1540.000000 0.6822 0.6837 0.6851 0.6865 0.6878
1535.000000 0.6893 0.6908 0.6921 0.6936 0.6950
1530.000000 0.6964 0.6978 0.6993 0.7007 0.7021
1525.000000 0.7035 0.7049 0.7064 0.7078 0.7092
1520.000000 0.7114 0.7137 0.7158 0.7181 0.7203
1515.000000 0.7225 0.7248 0.7271 0.7294 0.7317
1510.000000 0.7340 0.7361 0.7387 0.7411 0.7438
1505.000000 0.7464 0.7489 0.7512 0.7536 0.7558
1500.000000 0.7583 0.7606 0.7628 0.7655 0.7682
1495.000000 0.7705 0.7724 0.7742 0.7761 0.7778
1490.000000 0.7797 0.7812 0.7826 0.7840 0.7854
1485.000000 0.7867 0.7880 0.7893 0.7904 0.7908
1480.000000 0.7908 0.7908 0.7908 0.7954 0.7897
1475.000000 0.7861 0.7718 0.7464 0.7208 0.6955
1470.000000 0.6808 0.6783 0.6990 0.7197 0.7404
1465.000000 0.7532 0.7571 0.7561 0.7545 0.7375
1460.000000 0.7204 0.7033 0.6875 0.6814 0.6806
1455.000000 0.6830 0.6953 0.7739 0.7876 0.7971
1450.000000 0.8064 0.8151 0.8196 0.8238 0.8274
1445.000000 0.8304 0.8334 0.8361 0.8386 0.8411
1440.000000 0.8434 0.8450 0.8466 0.8482 0.8498
1435.000000 0.8514 0.8530 0.8546 0.8562 0.8581
1430.000000 0.8601 0.8620 0.8635 0.8650 0.8665
1425.000000 0.8680 0.8690 0.8700 0.8710 0.8721
1420.000000 0.8732 0.8744 0.8755 0.8766 0.8775
1415.000000 0.8781 0.8783 0.8799 0.8780 0.8770
1410.000000 0.8750 0.8701 0.8142 0.7186 0.7167
1405.000000 0.7285 0.7593 0.7901 0.8210 0.8518
1400.000000 0.8642 0.8725 0.8775 0.8809 0.8833
1395.000000 0.8857 0.8875 0.8887 0.8898 0.8909
1390.000000 0.8915 0.8914 0.8913 0.8886 0.8550
1385.000000 0.8000 0.7503 0.7524 0.7818 0.8225
1380.000000 0.8632 0.8759 0.8842 0.8916 0.8983
1375.000000 0.9028 0.9065 0.9089 0.9111 0.9130
1370.000000 0.9148 0.9166 0.9184 0.9201 0.9213
1365.000000 0.9225 0.9238 0.9251 0.9261 0.9268
1360.000000 0.9277 0.9275 0.9282 0.9280 0.9271
1355.000000 0.9246 0.9213 0.9164 0.9114 0.9063
1350.000000 0.9013 0.8962 0.8905 0.8843 0.8785
1345.000000 0.8728 0.8671 0.8625 0.8584 0.8540
1340.000000 0.8518 0.8494 0.8496 0.8502 0.8508
1335.000000 0.8513 0.8518 0.8523 0.8527 0.8532
1330.000000 0.8537 0.8541 0.8545 0.8549 0.8553
1325.000000 0.8557 0.8561 0.8565 0.8568 0.8573
1320.000000 0.8574 0.8575 0.8575 0.8577 0.8578
1315.000000 0.8578 0.8571 0.8565 0.8559 0.8553
1310.000000 0.8546 0.8539 0.8532 0.8525 0.8518
1305.000000 0.8511 0.8504 0.8495 0.8486 0.8475
1300.000000 0.8466 0.8457 0.8445 0.8431 0.8417
1295.000000 0.8403 0.8389 0.8375 0.8362 0.8350
1290.000000 0.8337 0.8324 0.8312 0.8299 0.8280
1285.000000 0.8258 0.8236 0.8214 0.8180 0.8146
1280.000000 0.8111 0.8078 0.8044 0.8010 0.7971
1275.000000 0.7930 0.7887 0.7828 0.7758 0.7630
1270.000000 0.7474 0.7325 0.7145 0.7065 0.7007
1265.000000 0.6957 0.6915 0.6903 0.6925 0.6936
1260.000000 0.7019 0.7126 0.7211 0.7307 0.7343
1255.000000 0.7378 0.7391 0.7399 0.7414 0.7401
1250.000000 0.7396 0.7382 0.7367 0.7346 0.7322
1245.000000 0.7296 0.7268 0.7235 0.7198 0.7137
1240.000000 0.7054 0.6885 0.6786 0.6562 0.6299
1235.000000 0.6201 0.6188 0.6188 0.6197 0.6268
1230.000000 0.6364 0.6446 0.6526 0.6608 0.6732
1225.000000 0.6822 0.6890 0.6957 0.6995 0.7026
1220.000000 0.7050 0.7067 0.7071 0.7108 0.7078
1215.000000 0.7078 0.7078 0.7071 0.7058 0.7039
1210.000000 0.7011 0.6985 0.6942 0.6900 0.6860
1205.000000 0.6819 0.6778 0.6734 0.6691 0.6640
1200.000000 0.6586 0.6536 0.6495 0.6464 0.6454
1195.000000 0.6450 0.6457 0.6462 0.6478 0.6508
1190.000000 0.6546 0.6611 0.6685 0.6765 0.6846
1185.000000 0.6928 0.7011 0.7085 0.7153 0.7222
1180.000000 0.7297 0.7371 0.7442 0.7507 0.7572
1175.000000 0.7637 0.7697 0.7738 0.7764 0.7790
1170.000000 0.7815 0.7841 0.7867 0.7889 0.7911
1165.000000 0.7932 0.7954 0.7974 0.7992 0.8010
1160.000000 0.8028 0.8046 0.8064 0.8082 0.8100
1155.000000 0.8118 0.8135 0.8151 0.8168 0.8186
1150.000000 0.8203 0.8218 0.8233 0.8248 0.8262
1145.000000 0.8275 0.8290 0.8304 0.8318 0.8332
1140.000000 0.8345 0.8358 0.8370 0.8383 0.8396
1135.000000 0.8409 0.8421 0.8435 0.8448 0.8460
1130.000000 0.8471 0.8483 0.8495 0.8506 0.8517
1125.000000 0.8528 0.8540 0.8551 0.8563 0.8574
1120.000000 0.8585 0.8595 0.8605 0.8615 0.8625
1115.000000 0.8636 0.8647 0.8658 0.8668 0.8680
1110.000000 0.8690 0.8701 0.8712 0.8723 0.8737
1105.000000 0.8751 0.8765 0.8778 0.8793 0.8806
1100.000000 0.8820 0.8835 0.8850 0.8865 0.8880
1095.000000 0.8895 0.8910 0.8925 0.8937 0.8947
1090.000000 0.8957 0.8967 0.8975 0.8987 0.8998
1085.000000 0.9009 0.9020 0.9025 0.9032 0.9038
1080.000000 0.9044 0.9050 0.9054 0.9058 0.9061
1075.000000 0.9065 0.9068 0.9071 0.9075 0.9082
1070.000000 0.9087 0.9093 0.9099 0.9104 0.9110
1065.000000 0.9116 0.9121 0.9127 0.9131 0.9135
1060.000000 0.9140 0.9144 0.9149 0.9155 0.9161
1055.000000 0.9166 0.9171 0.9175 0.9175 0.9175
1050.000000 0.9155 0.9165 0.9151 0.9135 0.9108
1045.000000 0.9078 0.9039 0.8971 0.8486 0.7408
1040.000000 0.7196 0.7369 0.7687 0.8005 0.8321
1035.000000 0.8639 0.8798 0.8853 0.8893 0.8913
1030.000000 0.8933 0.8947 0.8958 0.8968 0.8977
1025.000000 0.8986 0.9016 0.9000 0.9006 0.9012
1020.000000 0.9014 0.8997 0.8874 0.8525 0.8178
1015.000000 0.7890 0.7857 0.7842 0.7835 0.7865
1010.000000 0.7846 0.7867 0.8078 0.8361 0.8642
1005.000000 0.8807 0.8852 0.8881 0.8909 0.8925
1000.000000 0.8940 0.8959 0.8950 0.8950 0.8951
995.000000 0.8944 0.8938 0.8921 0.8904 0.8887
990.000000 0.8868 0.8840 0.8811 0.8782 0.8754
985.000000 0.8721 0.8688 0.8654 0.8620 0.8586
980.000000 0.8553 0.8518 0.8481 0.8440 0.8399
975.000000 0.8358 0.8307 0.8247 0.8187 0.8126
970.000000 0.8064 0.8001 0.7939 0.7876 0.7810
965.000000 0.7744 0.7676 0.7608 0.7537 0.7465
960.000000 0.7393 0.7318 0.7247 0.7182 0.7117
955.000000 0.7050 0.6981 0.6911 0.6830 0.6741
950.000000 0.6651 0.6557 0.6461 0.6367 0.6272
945.000000 0.6178 0.6094 0.6009 0.5925 0.5841
940.000000 0.5758 0.5665 0.5570 0.5485 0.5401
935.000000 0.5315 0.5205 0.5100 0.5024 0.4949
930.000000 0.4874 0.4810 0.4749 0.4679 0.4599
925.000000 0.4538 0.4492 0.4445 0.4398 0.4351
920.000000 0.4305 0.4258 0.4210 0.4164 0.4117
915.000000 0.4071 0.4028 0.3984 0.3941 0.3894
910.000000 0.3860 0.3836 0.3823 0.3809 0.3798
905.000000 0.3790 0.3782 0.3777 0.3772 0.3791
900.000000 0.3774 0.3777 0.3780 0.3787 0.3793
895.000000 0.3799 0.3808 0.3816 0.3824 0.3832
890.000000 0.3840 0.3848 0.3856 0.3864 0.3873
885.000000 0.3880 0.3890 0.3898 0.3907 0.3914
880.000000 0.3923 0.3928 0.3932 0.3970 0.3940
875.000000 0.3939 0.3938 0.3936 0.3930 0.3924
870.000000 0.3918 0.3909 0.3899 0.3888 0.3868
865.000000 0.3850 0.3830 0.3812 0.3782 0.3746
860.000000 0.3710 0.3666 0.3623 0.3580 0.3541
855.000000 0.3502 0.3460 0.3403 0.3350 0.3300
850.000000 0.3250 0.3208 0.3168 0.3145 0.3137
845.000000 0.3157 0.3134 0.3161 0.3209 0.3292
840.000000 0.3420 0.3630 0.3773 0.3926 0.4075
835.000000 0.4200 0.4324 0.4439 0.4551 0.4645
830.000000 0.4729 0.4817 0.4914 0.4999 0.5068
825.000000 0.5129 0.5172 0.5215 0.5259 0.5303
820.000000 0.5343 0.5383 0.5418 0.5445 0.5472
815.000000 0.5499 0.5525 0.5558 0.5599 0.5694
810.000000 0.5642 0.5652 0.5652 0.5652 0.5622
805.000000 0.5573 0.5488 0.5340 0.5162 0.4965
800.000000 0.4584 0.4451 0.4259 0.4110 0.3918
795.000000 0.3784 0.3653 0.3520 0.3387 0.3254
790.000000 0.3122 0.2989 0.2856 0.2774 0.2774
785.000000 0.2773 0.2773 0.2775 0.2777 0.2780
780.000000 0.2704 0.2382 0.2059 0.1736 0.1415
775.000000 0.1092 0.0620 0.0536 0.0499 0.0477
770.000000 0.0446 0.0444 0.0441 0.0461 0.0505
765.000000 0.0585 0.0782 0.1649 0.2602 0.3556
760.000000 0.4509 0.5452 0.5655 0.5760 0.5860
755.000000 0.5942 0.6025 0.6132 0.6244 0.6334
750.000000 0.6418 0.6491 0.6558 0.6649 0.6678
745.000000 0.6698 0.6740 0.6715 0.6715 0.6701
740.000000 0.6680 0.6551 0.6121 0.5690 0.5259
735.000000 0.4828 0.4340 0.4307 0.4698 0.5218
730.000000 0.5737 0.6257 0.6726 0.7101 0.7204
725.000000 0.7269 0.7325 0.7365 0.7403 0.7425
720.000000 0.7445 0.7468 0.7497 0.7534 0.7592
715.000000 0.7657 0.7721 0.7782 0.7841 0.7901
710.000000 0.7958 0.8011 0.8057 0.8091 0.8125
705.000000 0.8151 0.8175 0.8199 0.8214 0.8228
700.000000 0.8243 0.8254 0.8265 0.8275 0.8284
695.000000 0.8292 0.8307 0.8295 0.8297 0.8298
690.000000 0.8298 0.8294 0.8284 0.8270 0.8253
685.000000 0.8235 0.8211 0.8180 0.8149 0.8111
680.000000 0.8071 0.8031 0.7965 0.7899 0.7818
675.000000 0.7738 0.7668 0.7598 0.7534 0.7485
670.000000 0.7450 0.7424 0.7419 0.7432 0.7437
665.000000 0.7489 0.7525 0.7564 0.7603 0.7642
660.000000 0.7682 0.7718 0.7736 0.7754 0.7771
655.000000 0.7789 0.7801 0.7808 0.7811 0.7818
650.000000 0.7818 0.7814 0.7810 0.7806 0.7801
645.000000 0.7795 0.7783 0.7768 0.7739 0.7710
640.000000 0.7681 0.7644 0.7605 0.7567 0.7525
635.000000 0.7478 0.7431 0.7383 0.7328 0.7269
630.000000 0.7210 0.7148 0.7058 0.6969 0.6888
625.000000 0.6815 0.6741 0.6668 0.6594 0.6517
620.000000 0.6441 0.6364 0.6279 0.6189 0.6098
615.000000 0.5988 0.5827 0.5624 0.5371 0.5205
610.000000 0.5010 0.4785 0.4222 0.3755 0.3616
605.000000 0.3595 0.3577 0.3592 0.3682 0.3912
600.000000 0.3872 0.3909 0.3908 0.3896 0.3878
595.000000 0.3848 0.3806 0.3753 0.3714 0.3695
590.000000 0.3690 0.3718 0.3749 0.3782 0.3857
585.000000 0.3932 0.4009 0.4087 0.4184 0.4281
580.000000 0.4379 0.4484 0.4590 0.4723 0.4869
575.000000 0.5032 0.5207 0.5424 0.5631 0.5767
570.000000 0.5896 0.6026 0.6155 0.6285 0.6415
565.000000 0.6544 0.6674 0.6803 0.6933 0.7061
560.000000 0.7192 0.7315 0.7384 0.7451 0.7519
555.000000 0.7589 0.7653 0.7714 0.7775 0.7836
550.000000 0.7890 0.7938 0.7987 0.8035 0.8084
545.000000 0.8121 0.8157 0.8193 0.8228 0.8264
540.000000 0.8299 0.8320 0.8342 0.8364 0.8385
535.000000 0.8406 0.8421 0.8435 0.8450 0.8464
530.000000 0.8478 0.8494 0.8508 0.8518 0.8525
525.000000 0.8532 0.8539 0.8546 0.8553 0.8560
520.000000 0.8567 0.8573 0.8578 0.8583 0.8588
515.000000 0.8593 0.8599 0.8604 0.8609 0.8614
510.000000 0.8618 0.8625 0.8630 0.8636 0.8641
505.000000 0.8646 0.8652 0.8657 0.8663 0.8668
500.000000 0.8674 0.8678 0.8682 0.8687 0.8691
495.000000 0.8695 0.8699 0.8674 0.8707 0.8712
490.000000 0.8714 0.8715 0.8715 0.8715 0.8716
485.000000 0.8716 0.8716 0.8713 0.8706 0.8699
480.000000 0.8692 0.8685 0.8678 0.8671 0.8664
475.000000 0.8651 0.8639 0.8625 0.8614 0.8601
470.000000 0.8589 0.8575 0.8563 0.8550 0.8537
465.000000 0.8524 0.8511 0.8498 0.8484 0.8470
460.000000 0.8457 0.8443 0.8428 0.8415 0.8400
455.000000 0.8385 0.8368 0.8354 0.8339 0.8327
450.000000 0.8314 0.8301 0.8290
##END=
