##TITLE=n-Butyramide
##JCAMP-DX=4.24
$$ By DXEDIT 1.05 (RS McDonald)
##DATA TYPE=INFRARED SPECTRUM
##CLASS=COBLENTZ III
##ORIGIN=DOW CHEMICAL COMPANY
##OWNER=COPYRIGHT (C) 1988 by COBLENTZ SOCIETY INC.
Collection (C) 2018 copyright by the U.S. Secretary of Commerce
on behalf of the United States of America. All rights reserved.
##DATE=1964/04/03
##NAMES=butyramide
##CAS REGISTRY NO=541-35-5
##MOLFORM=C4 H9 N O
##MP=114 C
##SOURCE REFERENCE=COBLENTZ NO. 06324
##$NIST SOURCE=COBLENTZ
##$NIST IMAGE=cob6324
##SPECTROMETER/DATA SYSTEM=DOW KBr FOREPRISM-GRATING
##INSTRUMENT PARAMETERS=BLAZED AT 3.5, 12.0, 20.0 MICRON AND CHANGED AT 5.0, 7.5, 14.9 MICRON
##STATE=SOLID (SPLIT MULL)
$$ SPECTRAL FEATURE AT 1992 CM^-^1 IS AN ARTIFACT CAUSED BY GRATING CHANGE
##SAMPLING PROCEDURE=TRANSMISSION
##RESOLUTION=2
##DATA PROCESSING=DIGITIZED BY COBLENTZ SOCIETY (BATCH I) FROM HARD COPY
##XUNITS=1/CM
##YUNITS=TRANSMITTANCE
##XFACTOR=1
##YFACTOR=1
##DELTAX=1
##FIRSTX=3814
##LASTX=448
##FIRSTY=0.8841
##MAXX=3814
##MINX=448
##MAXY=0.8883
##MINY=0.0731
##NPOINTS=3367
##XYDATA=(X++(Y..Y))
3814.000000 0.8841 0.8840 0.8840 0.8839 0.8838
3809.000000 0.8837 0.8836 0.8835 0.8834 0.8833
3804.000000 0.8832 0.8831 0.8830 0.8828 0.8828
3799.000000 0.8827 0.8825 0.8825 0.8824 0.8824
3794.000000 0.8825 0.8827 0.8830 0.8832 0.8834
3789.000000 0.8836 0.8838 0.8840 0.8843 0.8845
3784.000000 0.8847 0.8849 0.8852 0.8854 0.8856
3779.000000 0.8858 0.8860 0.8862 0.8865 0.8866
3774.000000 0.8867 0.8868 0.8868 0.8870 0.8871
3769.000000 0.8871 0.8873 0.8873 0.8874 0.8875
3764.000000 0.8875 0.8877 0.8878 0.8878 0.8880
3759.000000 0.8880 0.8880 0.8880 0.8881 0.8881
3754.000000 0.8881 0.8881 0.8881 0.8881 0.8882
3749.000000 0.8882 0.8882 0.8882 0.8883 0.8883
3744.000000 0.8883 0.8883 0.8883 0.8883 0.8883
3739.000000 0.8882 0.8882 0.8882 0.8882 0.8882
3734.000000 0.8882 0.8881 0.8881 0.8881 0.8881
3729.000000 0.8880 0.8880 0.8878 0.8878 0.8878
3724.000000 0.8878 0.8877 0.8875 0.8875 0.8875
3719.000000 0.8873 0.8871 0.8871 0.8870 0.8868
3714.000000 0.8868 0.8865 0.8863 0.8855 0.8848
3709.000000 0.8840 0.8833 0.8825 0.8818 0.8811
3704.000000 0.8804 0.8798 0.8792 0.8788 0.8785
3699.000000 0.8781 0.8777 0.8775 0.8775 0.8778
3694.000000 0.8783 0.8786 0.8790 0.8794 0.8798
3689.000000 0.8800 0.8803 0.8804 0.8806 0.8808
3684.000000 0.8810 0.8812 0.8814 0.8816 0.8818
3679.000000 0.8818 0.8820 0.8820 0.8820 0.8820
3674.000000 0.8820 0.8820 0.8820 0.8820 0.8820
3669.000000 0.8818 0.8816 0.8814 0.8812 0.8810
3664.000000 0.8809 0.8807 0.8805 0.8803 0.8801
3659.000000 0.8799 0.8797 0.8797 0.8797 0.8797
3654.000000 0.8798 0.8798 0.8799 0.8799 0.8800
3649.000000 0.8800 0.8800 0.8800 0.8801 0.8801
3644.000000 0.8801 0.8801 0.8802 0.8802 0.8802
3639.000000 0.8802 0.8803 0.8803 0.8803 0.8803
3634.000000 0.8804 0.8804 0.8804 0.8804 0.8805
3629.000000 0.8805 0.8805 0.8805 0.8806 0.8806
3624.000000 0.8807 0.8807 0.8807 0.8807 0.8808
3619.000000 0.8808 0.8808 0.8808 0.8809 0.8809
3614.000000 0.8809 0.8809 0.8810 0.8810 0.8810
3609.000000 0.8810 0.8811 0.8811 0.8811 0.8811
3604.000000 0.8812 0.8812 0.8812 0.8812 0.8813
3599.000000 0.8813 0.8814 0.8814 0.8814 0.8814
3594.000000 0.8815 0.8815 0.8815 0.8815 0.8816
3589.000000 0.8816 0.8816 0.8816 0.8817 0.8817
3584.000000 0.8817 0.8817 0.8817 0.8818 0.8818
3579.000000 0.8818 0.8818 0.8818 0.8818 0.8818
3574.000000 0.8820 0.8820 0.8821 0.8821 0.8821
3569.000000 0.8821 0.8821 0.8821 0.8821 0.8821
3564.000000 0.8823 0.8823 0.8823 0.8823 0.8824
3559.000000 0.8824 0.8824 0.8824 0.8825 0.8825
3554.000000 0.8825 0.8825 0.8825 0.8825 0.8825
3549.000000 0.8825 0.8827 0.8827 0.8828 0.8828
3544.000000 0.8828 0.8828 0.8828 0.8828 0.8828
3539.000000 0.8828 0.8830 0.8830 0.8830 0.8830
3534.000000 0.8831 0.8831 0.8831 0.8831 0.8832
3529.000000 0.8832 0.8832 0.8832 0.8832 0.8830
3524.000000 0.8828 0.8825 0.8823 0.8820 0.8818
3519.000000 0.8816 0.8814 0.8811 0.8809 0.8806
3514.000000 0.8804 0.8802 0.8800 0.8798 0.8797
3509.000000 0.8794 0.8792 0.8789 0.8786 0.8783
3504.000000 0.8780 0.8775 0.8773 0.8770 0.8767
3499.000000 0.8763 0.8760 0.8756 0.8752 0.8748
3494.000000 0.8744 0.8740 0.8736 0.8732 0.8728
3489.000000 0.8723 0.8718 0.8712 0.8706 0.8698
3484.000000 0.8691 0.8683 0.8675 0.8667 0.8660
3479.000000 0.8650 0.8641 0.8630 0.8618 0.8608
3474.000000 0.8597 0.8586 0.8575 0.8563 0.8551
3469.000000 0.8537 0.8524 0.8511 0.8498 0.8483
3464.000000 0.8468 0.8447 0.8425 0.8405 0.8384
3459.000000 0.8363 0.8342 0.8320 0.8299 0.8277
3454.000000 0.8256 0.8235 0.8214 0.8191 0.8168
3449.000000 0.8136 0.8104 0.8071 0.8040 0.8007
3444.000000 0.7974 0.7937 0.7901 0.7864 0.7828
3439.000000 0.7791 0.7755 0.7707 0.7660 0.7606
3434.000000 0.7551 0.7497 0.7442 0.7382 0.7321
3429.000000 0.7261 0.7201 0.7145 0.7090 0.7035
3424.000000 0.6980 0.6925 0.6869 0.6765 0.6662
3419.000000 0.6543 0.6422 0.6298 0.6174 0.6096
3414.000000 0.6019 0.5923 0.5828 0.5650 0.5473
3409.000000 0.5372 0.5271 0.4558 0.3846 0.3706
3404.000000 0.3566 0.3521 0.3475 0.3429 0.3384
3399.000000 0.3338 0.3293 0.3253 0.3212 0.3177
3394.000000 0.3142 0.3106 0.3070 0.3007 0.2945
3389.000000 0.2880 0.2816 0.2735 0.2657 0.2566
3384.000000 0.2475 0.2271 0.2067 0.1996 0.1928
3379.000000 0.1876 0.1825 0.1783 0.1742 0.1720
3374.000000 0.1699 0.1653 0.1608 0.1581 0.1554
3369.000000 0.1549 0.1545 0.1542 0.1518 0.1538
3364.000000 0.1538 0.1537 0.1538 0.1544 0.1550
3359.000000 0.1579 0.1609 0.1663 0.1718 0.1761
3354.000000 0.1804 0.1853 0.1902 0.1987 0.2075
3349.000000 0.2116 0.2158 0.2199 0.2241 0.2302
3344.000000 0.2364 0.2442 0.2520 0.2588 0.2656
3339.000000 0.2722 0.2789 0.2847 0.2905 0.2963
3334.000000 0.3021 0.3054 0.3088 0.3121 0.3154
3329.000000 0.3187 0.3220 0.3253 0.3286 0.3318
3324.000000 0.3350 0.3382 0.3414 0.3447 0.3480
3319.000000 0.3509 0.3540 0.3564 0.3591 0.3616
3314.000000 0.3642 0.3666 0.3693 0.3718 0.3743
3309.000000 0.3766 0.3791 0.3814 0.3840 0.3864
3304.000000 0.3888 0.3910 0.3934 0.3958 0.3980
3299.000000 0.4003 0.4026 0.4048 0.4071 0.4094
3294.000000 0.4117 0.4138 0.4160 0.4181 0.4202
3289.000000 0.4223 0.4244 0.4265 0.4286 0.4307
3284.000000 0.4328 0.4345 0.4362 0.4380 0.4397
3279.000000 0.4414 0.4431 0.4449 0.4468 0.4486
3274.000000 0.4504 0.4522 0.4541 0.4558 0.4575
3269.000000 0.4591 0.4608 0.4617 0.4627 0.4636
3264.000000 0.4645 0.4652 0.4660 0.4662 0.4666
3259.000000 0.4669 0.4655 0.4674 0.4676 0.4676
3254.000000 0.4676 0.4675 0.4674 0.4668 0.4662
3249.000000 0.4639 0.4616 0.4589 0.4562 0.4528
3244.000000 0.4495 0.4453 0.4410 0.4356 0.4301
3239.000000 0.4250 0.4199 0.4151 0.4103 0.4056
3234.000000 0.4009 0.3962 0.3916 0.3866 0.3816
3229.000000 0.3760 0.3706 0.3657 0.3609 0.3564
3224.000000 0.3520 0.3480 0.3441 0.3407 0.3373
3219.000000 0.3339 0.3305 0.3276 0.3247 0.3222
3214.000000 0.3198 0.3174 0.3150 0.3125 0.3101
3209.000000 0.3082 0.3063 0.3044 0.3025 0.3006
3204.000000 0.2987 0.2972 0.2958 0.2945 0.2932
3199.000000 0.2923 0.2915 0.2907 0.2899 0.2892
3194.000000 0.2884 0.2879 0.2873 0.2868 0.2864
3189.000000 0.2860 0.2838 0.2853 0.2851 0.2850
3184.000000 0.2849 0.2848 0.2848 0.2856 0.2865
3179.000000 0.2890 0.2916 0.2952 0.2988 0.3035
3174.000000 0.3084 0.3150 0.3216 0.3303 0.3389
3169.000000 0.3497 0.3605 0.3725 0.3845 0.3966
3164.000000 0.4089 0.4178 0.4267 0.4346 0.4426
3159.000000 0.4504 0.4582 0.4662 0.4745 0.4825
3154.000000 0.4905 0.4978 0.5052 0.5120 0.5189
3149.000000 0.5236 0.5283 0.5329 0.5376 0.5423
3144.000000 0.5470 0.5518 0.5567 0.5615 0.5662
3139.000000 0.5748 0.5834 0.5875 0.5916 0.5957
3134.000000 0.5998 0.6038 0.6078 0.6110 0.6144
3129.000000 0.6180 0.6217 0.6245 0.6274 0.6302
3124.000000 0.6330 0.6358 0.6387 0.6415 0.6443
3119.000000 0.6471 0.6499 0.6524 0.6549 0.6568
3114.000000 0.6587 0.6605 0.6624 0.6643 0.6661
3109.000000 0.6681 0.6700 0.6721 0.6742 0.6762
3104.000000 0.6785 0.6806 0.6828 0.6850 0.6871
3099.000000 0.6891 0.6911 0.6930 0.6949 0.6968
3094.000000 0.6987 0.7006 0.7025 0.7044 0.7064
3089.000000 0.7083 0.7101 0.7121 0.7142 0.7161
3084.000000 0.7182 0.7201 0.7221 0.7242 0.7261
3079.000000 0.7280 0.7299 0.7317 0.7336 0.7354
3074.000000 0.7371 0.7390 0.7408 0.7422 0.7437
3069.000000 0.7449 0.7461 0.7475 0.7488 0.7501
3064.000000 0.7514 0.7525 0.7539 0.7551 0.7564
3059.000000 0.7575 0.7589 0.7601 0.7614 0.7625
3054.000000 0.7639 0.7651 0.7664 0.7675 0.7687
3049.000000 0.7698 0.7710 0.7721 0.7733 0.7744
3044.000000 0.7755 0.7765 0.7775 0.7784 0.7792
3039.000000 0.7800 0.7808 0.7815 0.7824 0.7830
3034.000000 0.7837 0.7843 0.7849 0.7854 0.7860
3029.000000 0.7865 0.7871 0.7878 0.7884 0.7889
3024.000000 0.7895 0.7899 0.7904 0.7908 0.7911
3019.000000 0.7915 0.7921 0.7924 0.7926 0.7930
3014.000000 0.7934 0.7937 0.7940 0.7942 0.7944
3009.000000 0.7944 0.7944 0.7943 0.7936 0.7935
3004.000000 0.7930 0.7925 0.7919 0.7911 0.7901
2999.000000 0.7890 0.7878 0.7865 0.7851 0.7831
2994.000000 0.7810 0.7788 0.7767 0.7745 0.7724
2989.000000 0.7695 0.7665 0.7636 0.7607 0.7572
2984.000000 0.7540 0.7499 0.7458 0.7399 0.7339
2979.000000 0.7264 0.7189 0.7141 0.7094 0.7022
2974.000000 0.6951 0.6884 0.6817 0.6284 0.5751
2969.000000 0.4646 0.3542 0.3542 0.3549 0.3547
2964.000000 0.3552 0.3706 0.3859 0.4062 0.4266
2959.000000 0.4469 0.4672 0.4875 0.5078 0.5281
2954.000000 0.5484 0.5687 0.5890 0.6036 0.6183
2949.000000 0.6223 0.6262 0.6268 0.6273 0.6276
2944.000000 0.6279 0.6280 0.6282 0.6260 0.6240
2939.000000 0.6186 0.6132 0.6078 0.6024 0.6007
2934.000000 0.5990 0.5988 0.5986 0.6104 0.6222
2929.000000 0.6355 0.6489 0.6594 0.6699 0.6767
2924.000000 0.6835 0.6868 0.6901 0.6919 0.6939
2919.000000 0.6953 0.6967 0.6975 0.6983 0.6988
2914.000000 0.6993 0.6997 0.7001 0.7003 0.7006
2909.000000 0.7008 0.7010 0.7014 0.7018 0.7022
2904.000000 0.7028 0.7061 0.7094 0.7142 0.7190
2899.000000 0.7228 0.7267 0.7290 0.7314 0.7321
2894.000000 0.7331 0.7337 0.7344 0.7347 0.7365
2889.000000 0.7350 0.7349 0.7344 0.7339 0.7267
2884.000000 0.7195 0.6992 0.6790 0.6588 0.6386
2879.000000 0.6277 0.6183 0.6165 0.6162 0.6162
2874.000000 0.6160 0.6298 0.6435 0.6638 0.6842
2869.000000 0.7045 0.7249 0.7378 0.7510 0.7539
2864.000000 0.7568 0.7597 0.7626 0.7665 0.7705
2859.000000 0.7740 0.7775 0.7807 0.7838 0.7861
2854.000000 0.7884 0.7901 0.7918 0.7930 0.7941
2849.000000 0.7951 0.7961 0.7968 0.7976 0.7983
2844.000000 0.7990 0.7996 0.8003 0.8006 0.8010
2839.000000 0.8010 0.8010 0.8010 0.8010 0.8008
2834.000000 0.8008 0.8007 0.8007 0.7999 0.7991
2829.000000 0.7975 0.7960 0.7933 0.7906 0.7883
2824.000000 0.7860 0.7838 0.7817 0.7792 0.7768
2819.000000 0.7738 0.7708 0.7684 0.7660 0.7639
2814.000000 0.7618 0.7614 0.7628 0.7610 0.7610
2809.000000 0.7618 0.7625 0.7638 0.7651 0.7671
2804.000000 0.7693 0.7725 0.7758 0.7792 0.7825
2799.000000 0.7857 0.7889 0.7911 0.7934 0.7953
2794.000000 0.7972 0.7985 0.7997 0.8008 0.8019
2789.000000 0.8030 0.8041 0.8049 0.8057 0.8062
2784.000000 0.8069 0.8074 0.8078 0.8082 0.8085
2779.000000 0.8087 0.8089 0.8089 0.8089 0.8089
2774.000000 0.8090 0.8090 0.8090 0.8090 0.8091
2769.000000 0.8092 0.8094 0.8095 0.8096 0.8100
2764.000000 0.8105 0.8110 0.8115 0.8121 0.8128
2759.000000 0.8140 0.8151 0.8164 0.8175 0.8187
2754.000000 0.8199 0.8211 0.8223 0.8236 0.8249
2749.000000 0.8264 0.8278 0.8294 0.8309 0.8317
2744.000000 0.8325 0.8333 0.8341 0.8347 0.8354
2739.000000 0.8356 0.8359 0.8361 0.8363 0.8363
2734.000000 0.8364 0.8364 0.8365 0.8367 0.8368
2729.000000 0.8373 0.8377 0.8380 0.8384 0.8387
2724.000000 0.8391 0.8395 0.8399 0.8404 0.8409
2719.000000 0.8414 0.8418 0.8424 0.8428 0.8434
2714.000000 0.8439 0.8443 0.8448 0.8452 0.8456
2709.000000 0.8460 0.8464 0.8468 0.8471 0.8471
2704.000000 0.8473 0.8474 0.8475 0.8475 0.8475
2699.000000 0.8475 0.8477 0.8478 0.8478 0.8478
2694.000000 0.8480 0.8481 0.8482 0.8482 0.8483
2689.000000 0.8483 0.8484 0.8485 0.8486 0.8488
2684.000000 0.8491 0.8493 0.8495 0.8497 0.8500
2679.000000 0.8502 0.8505 0.8507 0.8509 0.8511
2674.000000 0.8514 0.8516 0.8518 0.8520 0.8523
2669.000000 0.8525 0.8528 0.8532 0.8535 0.8538
2664.000000 0.8542 0.8545 0.8549 0.8552 0.8556
2659.000000 0.8559 0.8563 0.8566 0.8570 0.8573
2654.000000 0.8575 0.8578 0.8581 0.8582 0.8584
2649.000000 0.8585 0.8587 0.8588 0.8590 0.8591
2644.000000 0.8593 0.8594 0.8596 0.8597 0.8599
2639.000000 0.8600 0.8602 0.8602 0.8603 0.8604
2634.000000 0.8605 0.8606 0.8607 0.8607 0.8608
2629.000000 0.8609 0.8610 0.8611 0.8612 0.8613
2624.000000 0.8614 0.8614 0.8615 0.8616 0.8617
2619.000000 0.8618 0.8618 0.8620 0.8621 0.8621
2614.000000 0.8621 0.8623 0.8624 0.8625 0.8625
2609.000000 0.8627 0.8628 0.8628 0.8628 0.8630
2604.000000 0.8631 0.8632 0.8633 0.8633 0.8634
2599.000000 0.8634 0.8635 0.8635 0.8636 0.8636
2594.000000 0.8637 0.8637 0.8638 0.8639 0.8640
2589.000000 0.8640 0.8641 0.8641 0.8642 0.8642
2584.000000 0.8643 0.8643 0.8644 0.8644 0.8645
2579.000000 0.8646 0.8647 0.8647 0.8648 0.8648
2574.000000 0.8649 0.8649 0.8650 0.8650 0.8651
2569.000000 0.8651 0.8652 0.8652 0.8653 0.8654
2564.000000 0.8655 0.8655 0.8656 0.8656 0.8657
2559.000000 0.8657 0.8658 0.8658 0.8658 0.8658
2554.000000 0.8658 0.8657 0.8657 0.8657 0.8657
2549.000000 0.8656 0.8656 0.8655 0.8655 0.8655
2544.000000 0.8655 0.8654 0.8654 0.8653 0.8653
2539.000000 0.8653 0.8653 0.8652 0.8652 0.8651
2534.000000 0.8651 0.8651 0.8651 0.8650 0.8650
2529.000000 0.8649 0.8649 0.8649 0.8649 0.8648
2524.000000 0.8648 0.8648 0.8648 0.8647 0.8647
2519.000000 0.8647 0.8647 0.8646 0.8646 0.8645
2514.000000 0.8645 0.8644 0.8644 0.8643 0.8643
2509.000000 0.8642 0.8642 0.8642 0.8642 0.8641
2504.000000 0.8641 0.8640 0.8640 0.8639 0.8639
2499.000000 0.8638 0.8638 0.8637 0.8637 0.8637
2494.000000 0.8637 0.8636 0.8636 0.8635 0.8635
2489.000000 0.8634 0.8634 0.8633 0.8633 0.8633
2484.000000 0.8633 0.8632 0.8632 0.8631 0.8631
2479.000000 0.8631 0.8631 0.8630 0.8630 0.8630
2474.000000 0.8630 0.8630 0.8630 0.8628 0.8628
2469.000000 0.8628 0.8628 0.8628 0.8628 0.8628
2464.000000 0.8628 0.8627 0.8627 0.8627 0.8627
2459.000000 0.8627 0.8627 0.8625 0.8625 0.8625
2454.000000 0.8625 0.8625 0.8625 0.8625 0.8625
2449.000000 0.8624 0.8624 0.8624 0.8624 0.8623
2444.000000 0.8623 0.8623 0.8623 0.8623 0.8623
2439.000000 0.8621 0.8621 0.8621 0.8621 0.8621
2434.000000 0.8621 0.8621 0.8621 0.8620 0.8620
2429.000000 0.8620 0.8620 0.8618 0.8618 0.8618
2424.000000 0.8618 0.8617 0.8617 0.8616 0.8616
2419.000000 0.8615 0.8615 0.8614 0.8614 0.8613
2414.000000 0.8613 0.8612 0.8612 0.8611 0.8611
2409.000000 0.8610 0.8610 0.8609 0.8609 0.8608
2404.000000 0.8608 0.8607 0.8607 0.8607 0.8607
2399.000000 0.8606 0.8606 0.8606 0.8606 0.8605
2394.000000 0.8605 0.8605 0.8605 0.8605 0.8605
2389.000000 0.8604 0.8604 0.8604 0.8604 0.8603
2384.000000 0.8602 0.8600 0.8599 0.8597 0.8596
2379.000000 0.8595 0.8594 0.8593 0.8593 0.8592
2374.000000 0.8591 0.8590 0.8589 0.8588 0.8588
2369.000000 0.8587 0.8586 0.8584 0.8582 0.8577
2364.000000 0.8573 0.8568 0.8564 0.8561 0.8558
2359.000000 0.8554 0.8551 0.8548 0.8545 0.8540
2354.000000 0.8536 0.8531 0.8525 0.8521 0.8516
2349.000000 0.8513 0.8511 0.8510 0.8509 0.8507
2344.000000 0.8506 0.8504 0.8503 0.8502 0.8501
2339.000000 0.8500 0.8499 0.8497 0.8496 0.8495
2334.000000 0.8494 0.8493 0.8492 0.8491 0.8490
2329.000000 0.8489 0.8489 0.8488 0.8488 0.8487
2324.000000 0.8487 0.8486 0.8486 0.8485 0.8485
2319.000000 0.8485 0.8485 0.8484 0.8484 0.8484
2314.000000 0.8484 0.8483 0.8483 0.8483 0.8483
2309.000000 0.8482 0.8481 0.8475 0.8471 0.8468
2304.000000 0.8464 0.8461 0.8458 0.8455 0.8452
2299.000000 0.8448 0.8445 0.8443 0.8442 0.8441
2294.000000 0.8440 0.8439 0.8438 0.8437 0.8436
2289.000000 0.8435 0.8435 0.8434 0.8434 0.8433
2284.000000 0.8433 0.8432 0.8432 0.8431 0.8431
2279.000000 0.8430 0.8430 0.8430 0.8431 0.8434
2274.000000 0.8438 0.8441 0.8445 0.8447 0.8450
2269.000000 0.8452 0.8454 0.8456 0.8458 0.8460
2264.000000 0.8462 0.8464 0.8466 0.8468 0.8470
2259.000000 0.8471 0.8474 0.8475 0.8478 0.8478
2254.000000 0.8481 0.8483 0.8485 0.8487 0.8489
2249.000000 0.8491 0.8493 0.8495 0.8497 0.8499
2244.000000 0.8501 0.8502 0.8504 0.8506 0.8508
2239.000000 0.8510 0.8512 0.8514 0.8516 0.8517
2234.000000 0.8518 0.8521 0.8523 0.8525 0.8527
2229.000000 0.8528 0.8531 0.8532 0.8534 0.8536
2224.000000 0.8538 0.8540 0.8543 0.8545 0.8548
2219.000000 0.8550 0.8553 0.8555 0.8558 0.8560
2214.000000 0.8563 0.8565 0.8568 0.8570 0.8573
2209.000000 0.8575 0.8578 0.8580 0.8583 0.8583
2204.000000 0.8584 0.8584 0.8584 0.8584 0.8585
2199.000000 0.8585 0.8586 0.8586 0.8586 0.8586
2194.000000 0.8587 0.8587 0.8587 0.8587 0.8587
2189.000000 0.8587 0.8587 0.8587 0.8587 0.8587
2184.000000 0.8587 0.8587 0.8587 0.8587 0.8587
2179.000000 0.8587 0.8587 0.8587 0.8587 0.8587
2174.000000 0.8587 0.8587 0.8588 0.8588 0.8589
2169.000000 0.8590 0.8591 0.8591 0.8592 0.8592
2164.000000 0.8593 0.8593 0.8594 0.8594 0.8595
2159.000000 0.8595 0.8596 0.8597 0.8598 0.8598
2154.000000 0.8599 0.8599 0.8600 0.8601 0.8602
2149.000000 0.8603 0.8605 0.8606 0.8607 0.8608
2144.000000 0.8609 0.8610 0.8612 0.8613 0.8614
2139.000000 0.8615 0.8616 0.8617 0.8618 0.8620
2134.000000 0.8621 0.8621 0.8623 0.8623 0.8624
2129.000000 0.8625 0.8625 0.8625 0.8627 0.8627
2124.000000 0.8628 0.8628 0.8628 0.8628 0.8628
2119.000000 0.8628 0.8630 0.8630 0.8631 0.8631
2114.000000 0.8631 0.8631 0.8632 0.8632 0.8633
2109.000000 0.8633 0.8634 0.8634 0.8634 0.8634
2104.000000 0.8635 0.8635 0.8636 0.8637 0.8638
2099.000000 0.8639 0.8641 0.8642 0.8643 0.8644
2094.000000 0.8645 0.8646 0.8648 0.8649 0.8650
2089.000000 0.8651 0.8652 0.8653 0.8655 0.8656
2084.000000 0.8657 0.8658 0.8659 0.8660 0.8662
2079.000000 0.8663 0.8664 0.8665 0.8666 0.8667
2074.000000 0.8668 0.8668 0.8671 0.8671 0.8673
2069.000000 0.8674 0.8675 0.8675 0.8677 0.8678
2064.000000 0.8678 0.8678 0.8680 0.8681 0.8682
2059.000000 0.8683 0.8684 0.8685 0.8686 0.8687
2054.000000 0.8688 0.8688 0.8689 0.8690 0.8691
2049.000000 0.8692 0.8693 0.8693 0.8694 0.8695
2044.000000 0.8696 0.8696 0.8697 0.8698 0.8699
2039.000000 0.8699 0.8700 0.8700 0.8701 0.8701
2034.000000 0.8702 0.8702 0.8703 0.8703 0.8704
2029.000000 0.8705 0.8705 0.8705 0.8705 0.8705
2024.000000 0.8705 0.8705 0.8705 0.8705 0.8705
2019.000000 0.8706 0.8707 0.8708 0.8709 0.8710
2014.000000 0.8711 0.8712 0.8713 0.8713 0.8713
2009.000000 0.8712 0.8712 0.8711 0.8710 0.8708
2004.000000 0.8707 0.8705 0.8704 0.8700 0.8696
1999.000000 0.8691 0.8682 0.8674 0.8627 0.8551
1994.000000 0.8475 0.8421 0.8420 0.8446 0.8486
1989.000000 0.8523 0.8560 0.8596 0.8625 0.8625
1984.000000 0.8625 0.8627 0.8627 0.8627 0.8627
1979.000000 0.8628 0.8628 0.8628 0.8628 0.8628
1974.000000 0.8631 0.8632 0.8633 0.8635 0.8636
1969.000000 0.8637 0.8639 0.8641 0.8643 0.8645
1964.000000 0.8648 0.8650 0.8652 0.8653 0.8653
1959.000000 0.8652 0.8651 0.8650 0.8649 0.8648
1954.000000 0.8647 0.8646 0.8645 0.8644 0.8643
1949.000000 0.8642 0.8641 0.8640 0.8638 0.8637
1944.000000 0.8636 0.8635 0.8633 0.8632 0.8631
1939.000000 0.8628 0.8628 0.8627 0.8625 0.8624
1934.000000 0.8624 0.8624 0.8623 0.8623 0.8621
1929.000000 0.8621 0.8621 0.8621 0.8621 0.8620
1924.000000 0.8620 0.8618 0.8618 0.8616 0.8615
1919.000000 0.8613 0.8612 0.8610 0.8609 0.8609
1914.000000 0.8610 0.8610 0.8610 0.8610 0.8610
1909.000000 0.8611 0.8611 0.8611 0.8611 0.8612
1904.000000 0.8612 0.8612 0.8612 0.8613 0.8613
1899.000000 0.8612 0.8612 0.8611 0.8610 0.8610
1894.000000 0.8609 0.8608 0.8608 0.8607 0.8606
1889.000000 0.8606 0.8605 0.8604 0.8604 0.8603
1884.000000 0.8603 0.8603 0.8603 0.8603 0.8604
1879.000000 0.8604 0.8604 0.8605 0.8605 0.8605
1874.000000 0.8606 0.8606 0.8606 0.8606 0.8606
1869.000000 0.8606 0.8606 0.8605 0.8604 0.8603
1864.000000 0.8602 0.8601 0.8600 0.8599 0.8596
1859.000000 0.8593 0.8590 0.8587 0.8585 0.8582
1854.000000 0.8578 0.8577 0.8575 0.8573 0.8571
1849.000000 0.8570 0.8568 0.8566 0.8564 0.8562
1844.000000 0.8561 0.8559 0.8557 0.8555 0.8553
1839.000000 0.8552 0.8550 0.8549 0.8548 0.8547
1834.000000 0.8546 0.8545 0.8544 0.8543 0.8542
1829.000000 0.8541 0.8540 0.8539 0.8537 0.8536
1824.000000 0.8535 0.8533 0.8532 0.8531 0.8528
1819.000000 0.8528 0.8527 0.8525 0.8525 0.8524
1814.000000 0.8523 0.8521 0.8521 0.8520 0.8518
1809.000000 0.8515 0.8512 0.8510 0.8507 0.8504
1804.000000 0.8501 0.8498 0.8492 0.8486 0.8480
1799.000000 0.8474 0.8468 0.8462 0.8455 0.8442
1794.000000 0.8430 0.8417 0.8405 0.8393 0.8382
1789.000000 0.8373 0.8366 0.8363 0.8361 0.8358
1784.000000 0.8355 0.8352 0.8350 0.8350 0.8351
1779.000000 0.8351 0.8352 0.8352 0.8352 0.8352
1774.000000 0.8353 0.8353 0.8353 0.8353 0.8353
1769.000000 0.8354 0.8354 0.8354 0.8352 0.8350
1764.000000 0.8348 0.8346 0.8343 0.8341 0.8338
1759.000000 0.8332 0.8327 0.8321 0.8317 0.8312
1754.000000 0.8306 0.8300 0.8293 0.8287 0.8280
1749.000000 0.8274 0.8267 0.8261 0.8254 0.8248
1744.000000 0.8238 0.8228 0.8218 0.8208 0.8198
1739.000000 0.8188 0.8178 0.8165 0.8154 0.8141
1734.000000 0.8128 0.8117 0.8104 0.8092 0.8078
1729.000000 0.8058 0.8039 0.8019 0.8001 0.7980
1724.000000 0.7956 0.7932 0.7908 0.7884 0.7860
1719.000000 0.7836 0.7812 0.7790 0.7765 0.7743
1714.000000 0.7719 0.7694 0.7658 0.7624 0.7589
1709.000000 0.7542 0.7488 0.7433 0.7356 0.7278
1704.000000 0.7134 0.6986 0.6912 0.6838 0.6761
1699.000000 0.6724 0.6685 0.6647 0.6603 0.6533
1694.000000 0.6487 0.6440 0.6383 0.6325 0.6267
1689.000000 0.6209 0.6151 0.6047 0.5782 0.5618
1684.000000 0.5486 0.5360 0.5000 0.4709 0.4532
1679.000000 0.4298 0.4032 0.3353 0.3169 0.2471
1674.000000 0.2362 0.2178 0.2063 0.1945 0.1795
1669.000000 0.1661 0.1527 0.1392 0.1258 0.1123
1664.000000 0.0985 0.0953 0.0941 0.0891 0.0922
1659.000000 0.0921 0.0921 0.0929 0.0960 0.1046
1654.000000 0.1119 0.1192 0.1265 0.1337 0.1410
1649.000000 0.1482 0.1541 0.1560 0.1570 0.1589
1644.000000 0.1549 0.1528 0.1501 0.1429 0.1310
1639.000000 0.1196 0.1082 0.0968 0.0860 0.0817
1634.000000 0.0784 0.0759 0.0749 0.0731 0.0741
1629.000000 0.0805 0.0996 0.1273 0.1515 0.1757
1624.000000 0.2000 0.2242 0.2484 0.2727 0.2969
1619.000000 0.3210 0.3454 0.3628 0.3758 0.3856
1614.000000 0.3986 0.4125 0.4245 0.4438 0.4682
1609.000000 0.4908 0.5041 0.5162 0.5295 0.5436
1604.000000 0.5588 0.5714 0.5826 0.5932 0.6016
1599.000000 0.6100 0.6184 0.6260 0.6332 0.6404
1594.000000 0.6450 0.6494 0.6538 0.6582 0.6626
1589.000000 0.6672 0.6718 0.6758 0.6789 0.6821
1584.000000 0.6851 0.6878 0.6908 0.6937 0.6965
1579.000000 0.6994 0.7022 0.7051 0.7078 0.7105
1574.000000 0.7132 0.7157 0.7178 0.7199 0.7218
1569.000000 0.7240 0.7261 0.7282 0.7296 0.7308
1564.000000 0.7322 0.7337 0.7350 0.7362 0.7375
1559.000000 0.7388 0.7400 0.7411 0.7425 0.7437
1554.000000 0.7449 0.7461 0.7472 0.7485 0.7497
1549.000000 0.7508 0.7515 0.7521 0.7528 0.7534
1544.000000 0.7541 0.7547 0.7553 0.7558 0.7561
1539.000000 0.7565 0.7568 0.7571 0.7575 0.7578
1534.000000 0.7582 0.7584 0.7585 0.7594 0.7587
1529.000000 0.7588 0.7590 0.7591 0.7591 0.7589
1524.000000 0.7587 0.7585 0.7582 0.7580 0.7578
1519.000000 0.7575 0.7572 0.7571 0.7568 0.7567
1514.000000 0.7565 0.7562 0.7561 0.7558 0.7557
1509.000000 0.7554 0.7551 0.7549 0.7545 0.7541
1504.000000 0.7537 0.7530 0.7521 0.7514 0.7506
1499.000000 0.7498 0.7489 0.7478 0.7468 0.7457
1494.000000 0.7446 0.7435 0.7424 0.7412 0.7401
1489.000000 0.7391 0.7378 0.7367 0.7354 0.7341
1484.000000 0.7328 0.7315 0.7303 0.7290 0.7275
1479.000000 0.7261 0.7244 0.7226 0.7210 0.7187
1474.000000 0.7161 0.7133 0.7101 0.7072 0.7045
1469.000000 0.7017 0.6940 0.6656 0.6267 0.5595
1464.000000 0.5609 0.5606 0.5674 0.5760 0.5845
1459.000000 0.5930 0.5934 0.5933 0.5950 0.5924
1454.000000 0.5917 0.5909 0.5886 0.5862 0.5836
1449.000000 0.5803 0.5764 0.5725 0.5657 0.5587
1444.000000 0.5520 0.5454 0.5349 0.5239 0.5124
1439.000000 0.4988 0.4768 0.4539 0.4233 0.4090
1434.000000 0.3970 0.3853 0.3704 0.3556 0.3430
1429.000000 0.3359 0.3346 0.3342 0.3334 0.3352
1424.000000 0.3412 0.3473 0.3524 0.3525 0.3525
1419.000000 0.3458 0.3328 0.3198 0.3075 0.3071
1414.000000 0.3429 0.3872 0.4140 0.4237 0.4657
1409.000000 0.4984 0.5129 0.5243 0.5315 0.5386
1404.000000 0.5458 0.5555 0.5664 0.5771 0.5877
1399.000000 0.5960 0.6039 0.6129 0.6194 0.6246
1394.000000 0.6281 0.6307 0.6333 0.6358 0.6387
1389.000000 0.6417 0.6447 0.6482 0.6518 0.6548
1384.000000 0.6568 0.6591 0.6628 0.6636 0.6639
1379.000000 0.6642 0.6642 0.6643 0.6643 0.6647
1374.000000 0.6671 0.6695 0.6724 0.6754 0.6785
1369.000000 0.6808 0.6826 0.6844 0.6857 0.6865
1364.000000 0.6872 0.6880 0.6885 0.6891 0.6897
1359.000000 0.6901 0.6904 0.6904 0.6904 0.6906
1354.000000 0.6883 0.6853 0.6814 0.6761 0.6678
1349.000000 0.6494 0.6372 0.6289 0.5803 0.5252
1344.000000 0.5165 0.5110 0.5114 0.5124 0.5190
1339.000000 0.5341 0.5494 0.5707 0.5921 0.6135
1334.000000 0.6216 0.6285 0.6370 0.6440 0.6496
1329.000000 0.6533 0.6571 0.6606 0.6635 0.6662
1324.000000 0.6689 0.6711 0.6733 0.6756 0.6780
1319.000000 0.6791 0.6803 0.6818 0.6835 0.6833
1314.000000 0.6830 0.6826 0.6811 0.6795 0.6782
1309.000000 0.6769 0.6761 0.6761 0.6760 0.6776
1304.000000 0.6794 0.6811 0.6828 0.6847 0.6865
1299.000000 0.6885 0.6904 0.6922 0.6944 0.6965
1294.000000 0.6987 0.7008 0.7028 0.7051 0.7071
1289.000000 0.7094 0.7115 0.7141 0.7164 0.7182
1284.000000 0.7199 0.7208 0.7217 0.7224 0.7228
1279.000000 0.7231 0.7236 0.7226 0.7222 0.7217
1274.000000 0.7210 0.7191 0.7171 0.7131 0.7061
1269.000000 0.6924 0.6789 0.6661 0.6424 0.6135
1264.000000 0.5847 0.5558 0.5270 0.5133 0.5139
1259.000000 0.5130 0.5164 0.5491 0.5933 0.6019
1254.000000 0.6087 0.6164 0.6408 0.6608 0.6738
1249.000000 0.6834 0.6914 0.6975 0.7032 0.7089
1244.000000 0.7146 0.7206 0.7265 0.7324 0.7375
1239.000000 0.7428 0.7482 0.7518 0.7554 0.7590
1234.000000 0.7625 0.7661 0.7691 0.7721 0.7750
1229.000000 0.7776 0.7795 0.7808 0.7821 0.7834
1224.000000 0.7848 0.7861 0.7874 0.7887 0.7898
1219.000000 0.7908 0.7918 0.7928 0.7939 0.7950
1214.000000 0.7960 0.7969 0.7980 0.7989 0.7998
1209.000000 0.8006 0.8015 0.8022 0.8031 0.8040
1204.000000 0.8049 0.8058 0.8067 0.8075 0.8085
1199.000000 0.8094 0.8103 0.8111 0.8121 0.8131
1194.000000 0.8143 0.8155 0.8167 0.8180 0.8192
1189.000000 0.8205 0.8218 0.8227 0.8234 0.8241
1184.000000 0.8249 0.8256 0.8264 0.8271 0.8275
1179.000000 0.8275 0.8275 0.8321 0.8271 0.8268
1174.000000 0.8264 0.8259 0.8261 0.8265 0.8268
1169.000000 0.8268 0.8270 0.8271 0.8274 0.8275
1164.000000 0.8271 0.8268 0.8264 0.8260 0.8244
1159.000000 0.8228 0.8211 0.8191 0.8168 0.8145
1154.000000 0.8093 0.7984 0.7872 0.7804 0.7671
1149.000000 0.7543 0.7438 0.7000 0.6562 0.6125
1144.000000 0.5688 0.5508 0.5406 0.5310 0.5303
1139.000000 0.5284 0.5281 0.5294 0.5623 0.5952
1134.000000 0.6281 0.6608 0.6687 0.6775 0.6945
1129.000000 0.7101 0.7243 0.7361 0.7475 0.7582
1124.000000 0.7669 0.7736 0.7801 0.7868 0.7935
1119.000000 0.7995 0.8046 0.8078 0.8112 0.8141
1114.000000 0.8168 0.8190 0.8211 0.8232 0.8253
1109.000000 0.8274 0.8285 0.8295 0.8304 0.8312
1104.000000 0.8320 0.8327 0.8328 0.8328 0.8325
1099.000000 0.8323 0.8318 0.8314 0.8308 0.8302
1094.000000 0.8296 0.8290 0.8281 0.8268 0.8258
1089.000000 0.8256 0.8254 0.8253 0.8268 0.8295
1084.000000 0.8318 0.8337 0.8351 0.8365 0.8378
1079.000000 0.8385 0.8393 0.8401 0.8408 0.8416
1074.000000 0.8423 0.8430 0.8436 0.8443 0.8449
1069.000000 0.8456 0.8463 0.8468 0.8475 0.8484
1064.000000 0.8492 0.8500 0.8508 0.8516 0.8525
1059.000000 0.8534 0.8542 0.8551 0.8560 0.8568
1054.000000 0.8571 0.8575 0.8578 0.8580 0.8583
1049.000000 0.8589 0.8594 0.8599 0.8605 0.8610
1044.000000 0.8613 0.8616 0.8618 0.8618 0.8618
1039.000000 0.8611 0.8602 0.8580 0.8558 0.8536
1034.000000 0.8521 0.8521 0.8521 0.8527 0.8545
1029.000000 0.8565 0.8587 0.8600 0.8611 0.8621
1024.000000 0.8631 0.8638 0.8645 0.8652 0.8656
1019.000000 0.8660 0.8665 0.8668 0.8670 0.8671
1014.000000 0.8674 0.8675 0.8677 0.8677 0.8675
1009.000000 0.8675 0.8675 0.8675 0.8675 0.8674
1004.000000 0.8674 0.8673 0.8673 0.8673 0.8671
999.000000 0.8671 0.8671 0.8671 0.8670 0.8670
994.000000 0.8670 0.8668 0.8668 0.8668 0.8668
989.000000 0.8667 0.8667 0.8667 0.8667 0.8667
984.000000 0.8667 0.8667 0.8668 0.8668 0.8668
979.000000 0.8668 0.8668 0.8668 0.8668 0.8668
974.000000 0.8668 0.8668 0.8667 0.8667 0.8666
969.000000 0.8666 0.8666 0.8665 0.8665 0.8664
964.000000 0.8664 0.8663 0.8663 0.8663 0.8663
959.000000 0.8663 0.8663 0.8663 0.8664 0.8664
954.000000 0.8664 0.8664 0.8664 0.8665 0.8665
949.000000 0.8663 0.8662 0.8660 0.8659 0.8657
944.000000 0.8656 0.8654 0.8653 0.8651 0.8650
939.000000 0.8648 0.8647 0.8645 0.8644 0.8641
934.000000 0.8638 0.8636 0.8633 0.8628 0.8621
929.000000 0.8613 0.8606 0.8601 0.8595 0.8589
924.000000 0.8583 0.8577 0.8571 0.8566 0.8560
919.000000 0.8554 0.8548 0.8543 0.8537 0.8532
914.000000 0.8527 0.8521 0.8516 0.8510 0.8505
909.000000 0.8499 0.8494 0.8488 0.8482 0.8475
904.000000 0.8470 0.8464 0.8458 0.8452 0.8446
899.000000 0.8441 0.8435 0.8430 0.8424 0.8418
894.000000 0.8414 0.8408 0.8403 0.8398 0.8391
889.000000 0.8384 0.8375 0.8368 0.8361 0.8354
884.000000 0.8340 0.8325 0.8311 0.8298 0.8287
879.000000 0.8277 0.8267 0.8257 0.8247 0.8237
874.000000 0.8225 0.8215 0.8176 0.8137 0.8104
869.000000 0.8071 0.8036 0.7998 0.7918 0.7858
864.000000 0.7793 0.7718 0.7645 0.7607 0.7554
859.000000 0.7569 0.7565 0.7625 0.7707 0.7778
854.000000 0.7853 0.7907 0.7951 0.7993 0.8025
849.000000 0.8061 0.8082 0.8090 0.8097 0.8105
844.000000 0.8112 0.8121 0.8128 0.8135 0.8139
839.000000 0.8142 0.8145 0.8146 0.8146 0.8146
834.000000 0.8147 0.8147 0.8146 0.8141 0.8136
829.000000 0.8115 0.8089 0.8068 0.8055 0.8042
824.000000 0.8028 0.8015 0.7991 0.7968 0.7950
819.000000 0.7932 0.7921 0.7915 0.7908 0.7903
814.000000 0.7895 0.7883 0.7871 0.7861 0.7857
809.000000 0.7853 0.7849 0.7848 0.7847 0.7847
804.000000 0.7847 0.7854 0.7862 0.7871 0.7878
799.000000 0.7892 0.7907 0.7919 0.7933 0.7946
794.000000 0.7958 0.7965 0.7971 0.7978 0.7985
789.000000 0.7992 0.7997 0.8001 0.8004 0.8008
784.000000 0.8011 0.8015 0.8019 0.8024 0.8026
779.000000 0.8026 0.8026 0.8026 0.8026 0.8028
774.000000 0.8042 0.8021 0.8015 0.8008 0.8001
769.000000 0.7993 0.7984 0.7975 0.7968 0.7956
764.000000 0.7942 0.7928 0.7914 0.7900 0.7885
759.000000 0.7869 0.7856 0.7842 0.7828 0.7814
754.000000 0.7798 0.7782 0.7765 0.7748 0.7730
749.000000 0.7700 0.7665 0.7617 0.7562 0.7518
744.000000 0.7505 0.7497 0.7489 0.7482 0.7475
739.000000 0.7465 0.7433 0.7371 0.7331 0.7290
734.000000 0.7245 0.7201 0.7160 0.7119 0.7075
729.000000 0.7031 0.6985 0.6938 0.6869 0.6815
724.000000 0.6755 0.6687 0.6618 0.6551 0.6484
719.000000 0.6415 0.6348 0.6294 0.6260 0.6242
714.000000 0.6229 0.6214 0.6225 0.6238 0.6253
709.000000 0.6268 0.6281 0.6292 0.6303 0.6314
704.000000 0.6325 0.6337 0.6351 0.6364 0.6378
699.000000 0.6392 0.6405 0.6418 0.6431 0.6441
694.000000 0.6449 0.6458 0.6462 0.6465 0.6468
689.000000 0.6471 0.6475 0.6480 0.6483 0.6511
684.000000 0.6471 0.6465 0.6458 0.6447 0.6428
679.000000 0.6408 0.6391 0.6374 0.6357 0.6337
674.000000 0.6317 0.6297 0.6278 0.6256 0.6233
669.000000 0.6210 0.6185 0.6156 0.6126 0.6102
664.000000 0.6077 0.6053 0.6027 0.6001 0.5979
659.000000 0.5958 0.5939 0.5924 0.5910 0.5901
654.000000 0.5893 0.5885 0.5877 0.5864 0.5865
649.000000 0.5868 0.5881 0.5891 0.5896 0.5907
644.000000 0.5922 0.5944 0.5968 0.6003 0.6038
639.000000 0.6073 0.6105 0.6137 0.6170 0.6202
634.000000 0.6243 0.6294 0.6343 0.6387 0.6431
629.000000 0.6475 0.6519 0.6565 0.6611 0.6656
624.000000 0.6701 0.6745 0.6788 0.6832 0.6871
619.000000 0.6908 0.6944 0.6981 0.7015 0.7049
614.000000 0.7074 0.7099 0.7122 0.7144 0.7162
609.000000 0.7182 0.7198 0.7214 0.7230 0.7244
604.000000 0.7251 0.7257 0.7262 0.7268 0.7275
599.000000 0.7281 0.7287 0.7291 0.7293 0.7296
594.000000 0.7307 0.7318 0.7331 0.7351 0.7375
589.000000 0.7400 0.7422 0.7447 0.7469 0.7494
584.000000 0.7518 0.7540 0.7561 0.7583 0.7604
579.000000 0.7625 0.7647 0.7668 0.7689 0.7708
574.000000 0.7730 0.7750 0.7769 0.7790 0.7810
569.000000 0.7828 0.7847 0.7865 0.7883 0.7901
564.000000 0.7918 0.7936 0.7951 0.7968 0.7984
559.000000 0.8001 0.8017 0.8031 0.8045 0.8058
554.000000 0.8074 0.8088 0.8101 0.8115 0.8125
549.000000 0.8137 0.8147 0.8158 0.8168 0.8178
544.000000 0.8190 0.8198 0.8205 0.8213 0.8220
539.000000 0.8227 0.8232 0.8234 0.8237 0.8239
534.000000 0.8241 0.8244 0.8245 0.8246 0.8248
529.000000 0.8249 0.8251 0.8253 0.8255 0.8257
524.000000 0.8260 0.8262 0.8264 0.8264 0.8265
519.000000 0.8265 0.8266 0.8266 0.8267 0.8267
514.000000 0.8268 0.8268 0.8268 0.8268 0.8268
509.000000 0.8268 0.8267 0.8265 0.8263 0.8262
504.000000 0.8260 0.8258 0.8256 0.8254 0.8251
499.000000 0.8246 0.8240 0.8234 0.8228 0.8220
494.000000 0.8208 0.8196 0.8184 0.8168 0.8149
489.000000 0.8130 0.8111 0.8094 0.8076 0.8060
484.000000 0.8032 0.8003 0.7968 0.7934 0.7901
479.000000 0.7868 0.7812 0.7751 0.7683 0.7625
474.000000 0.7574 0.7364 0.7186 0.7007 0.6828
469.000000 0.6650 0.6591 0.6553 0.6569 0.6571
464.000000 0.6581 0.6608 0.6638 0.6672 0.6717
459.000000 0.6771 0.6808 0.6840 0.6868 0.6896
454.000000 0.6918 0.6940 0.6958 0.6978 0.6998
449.000000 0.7018 0.7040
##END=
