##TITLE=CYCLOPENTADIENE
##JCAMP-DX=4.24
##DATA TYPE=INFRARED SPECTRUM
##CLASS=COBLENTZ
##ORIGIN=WYANDOTTE CHEMICALS CORP., WYANDOTTE, MICHIGAN, USA
##OWNER=COBLENTZ SOCIETY
Collection (C) 2018 copyright by the U.S. Secretary of Commerce
on behalf of the United States of America. All rights reserved.
##DATE=Not specified, most likely prior to 1970
##NAMES=1,3-cyclopentadiene
##CAS REGISTRY NO=542-92-7
##MOLFORM=C5 H6
##BP=41 C
##SOURCE REFERENCE=COBLENTZ NO. 2691
##$NIST SOURCE=COBLENTZ
##$NIST IMAGE=cob2691
##SPECTROMETER/DATA SYSTEM=Not specified, most likely a prism, grating, or hybrid spectrometer.
##STATE=LIQUID
##PATH LENGTH=0.003 CM
##SAMPLING PROCEDURE=TRANSMISSION
##RESOLUTION=4
##DATA PROCESSING=DIGITIZED BY NIST FROM HARD COPY
##XUNITS=MICROMETERS
##YUNITS=TRANSMITTANCE
##XFACTOR=1.000000
##YFACTOR=1
##DELTAX=000.006635
##FIRSTX=2.033
##LASTX=16.0002
##FIRSTY=0.968
##MAXX=16.0002
##MINX=2.033
##MAXY=0.965
##MINY=0.039
##NPOINTS=2106
##XYDATA=(X++(Y..Y))
2.033000 0.9680 0.9660 0.9650 0.9650 0.9630
2.066191 0.9630 0.9610 0.9600 0.9580 0.9580
2.100000 0.9580 0.9580 0.9580 0.9580 0.9600
2.133191 0.9600 0.9600 0.9600 0.9600 0.9600
2.166000 0.9600 0.9600 0.9580 0.9580 0.9580
2.199191 0.9580 0.9600 0.9600 0.9600 0.9580
2.232000 0.9580 0.9580 0.9580 0.9560 0.9560
2.265191 0.9550 0.9550 0.9530 0.9510 0.9510
2.299000 0.9510 0.9500 0.9500 0.9500 0.9480
2.332191 0.9480 0.9480 0.9460 0.9450 0.9430
2.365000 0.9430 0.9410 0.9410 0.9410 0.9410
2.398191 0.9400 0.9380 0.9380 0.9380 0.9400
2.431000 0.9400 0.9410 0.9430 0.9430 0.9430
2.464191 0.9410 0.9410 0.9410 0.9410 0.9410
2.498000 0.9400 0.9400 0.9350 0.9260 0.9130
2.531191 0.9000 0.8920 0.8800 0.8730 0.8730
2.564000 0.8770 0.8870 0.8980 0.9130 0.9250
2.597191 0.9310 0.9360 0.9380 0.9380 0.9400
2.630000 0.9430 0.9500 0.9530 0.9550 0.9550
2.663191 0.9560 0.9560 0.9560 0.9560 0.9550
2.697000 0.9530 0.9530 0.9510 0.9510 0.9510
2.730191 0.9510 0.9530 0.9530 0.9550 0.9600
2.763000 0.9630 0.9630 0.9630 0.9650 0.9650
2.796191 0.9650 0.9650 0.9650 0.9650 0.9630
2.829000 0.9630 0.9600 0.9580 0.9560 0.9560
2.862191 0.9550 0.9550 0.9560 0.9580 0.9600
2.896000 0.9610 0.9610 0.9610 0.9610 0.9610
2.929191 0.9610 0.9610 0.9610 0.9630 0.9630
2.962000 0.9610 0.9600 0.9580 0.9560 0.9560
2.995191 0.9560 0.9560 0.9580 0.9600 0.9600
3.028000 0.9600 0.9600 0.9600 0.9600 0.9560
3.061191 0.9550 0.9500 0.9460 0.9360 0.9200
3.095000 0.9060 0.8930 0.8920 0.8930 0.8950
3.128191 0.9010 0.9150 0.9180 0.9200 0.9230
3.161000 0.9260 0.9250 0.9160 0.9100 0.8980
3.194191 0.8850 0.8700 0.8500 0.8250 0.7900
3.227000 0.7250 0.4630 0.4110 0.3570 0.3550
3.260191 0.3580 0.3920 0.4280 0.4650 0.5010
3.294000 0.5260 0.5280 0.5310 0.5340 0.7220
3.327191 0.8130 0.8900 0.8920 0.8850 0.8470
3.360000 0.8180 0.8000 0.7720 0.7470 0.7300
3.393191 0.7290 0.7320 0.7440 0.7490 0.7420
3.427000 0.7250 0.6940 0.6670 0.6320 0.5710
3.460191 0.5080 0.4530 0.4230 0.4210 0.4230
3.493000 0.4710 0.5410 0.6140 0.6990 0.7590
3.526191 0.7950 0.8180 0.8330 0.8430 0.8530
3.559000 0.8720 0.9000 0.9030 0.9060 0.9130
3.592191 0.9180 0.9230 0.9250 0.9300 0.9300
3.626000 0.9310 0.9310 0.9300 0.9260 0.9180
3.659191 0.9080 0.8970 0.8850 0.8730 0.8570
3.692000 0.8300 0.8250 0.8250 0.8300 0.8920
3.725191 0.9150 0.9310 0.9360 0.9410 0.9430
3.758000 0.9430 0.9430 0.9410 0.9410 0.9430
3.791191 0.9430 0.9450 0.9460 0.9500 0.9500
3.825000 0.9510 0.9510 0.9530 0.9530 0.9530
3.858191 0.9530 0.9530 0.9530 0.9530 0.9530
3.891000 0.9510 0.9500 0.9500 0.9480 0.9460
3.924191 0.9430 0.9410 0.9400 0.9400 0.9410
3.957000 0.9410 0.9410 0.9430 0.9430 0.9430
3.990191 0.9410 0.9410 0.9400 0.9380 0.9380
4.024000 0.9400 0.9500 0.9500 0.9500 0.9460
4.057191 0.9460 0.9410 0.9400 0.9360 0.9380
4.090000 0.9380 0.9350 0.9330 0.9280 0.9230
4.123191 0.9230 0.9200 0.9180 0.9180 0.9180
4.156000 0.9210 0.9400 0.9410 0.9410 0.9400
4.189191 0.9400 0.9380 0.9380 0.9380 0.9400
4.223000 0.9400 0.9380 0.9380 0.9360 0.9350
4.256191 0.9330 0.9330 0.9350 0.9380 0.9430
4.289000 0.9480 0.9500 0.9510 0.9530 0.9550
4.322191 0.9550 0.9530 0.9500 0.9500 0.9510
4.355000 0.9530 0.9550 0.9550 0.9560 0.9560
4.388191 0.9600 0.9600 0.9480 0.9380 0.9350
4.422000 0.9300 0.9280 0.9250 0.9210 0.9210
4.455191 0.9200 0.9130 0.9110 0.9110 0.9110
4.488000 0.9130 0.9180 0.9210 0.9210 0.9230
4.521191 0.9230 0.9250 0.9250 0.9260 0.9280
4.555000 0.9300 0.9310 0.9310 0.9330 0.9330
4.588191 0.9330 0.9310 0.9300 0.9250 0.9200
4.621000 0.9150 0.9080 0.8980 0.8930 0.8830
4.654191 0.8820 0.8820 0.8830 0.8970 0.9050
4.687000 0.9100 0.9110 0.9110 0.9150 0.9150
4.720191 0.9150 0.9150 0.9150 0.9180 0.9260
4.754000 0.9300 0.9330 0.9330 0.9400 0.9400
4.787191 0.9400 0.9400 0.9400 0.9330 0.9330
4.820000 0.9380 0.9380 0.9380 0.9360 0.9350
4.853191 0.9310 0.9300 0.9300 0.9310 0.9310
4.886000 0.9350 0.9360 0.9360 0.9360 0.9360
4.919191 0.9350 0.9330 0.9330 0.9310 0.9310
4.953000 0.9300 0.9280 0.9250 0.9250 0.9230
4.986191 0.9200 0.9160 0.9110 0.9080 0.9060
5.019000 0.9030 0.9010 0.9010 0.9030 0.9080
5.052191 0.9130 0.9180 0.9250 0.9280 0.9300
5.085000 0.9300 0.9280 0.9280 0.9260 0.9260
5.118191 0.9280 0.9280 0.9330 0.9350 0.9380
5.152000 0.9380 0.9380 0.9360 0.9310 0.9300
5.185191 0.9260 0.9230 0.9230 0.9260 0.9350
5.218000 0.9360 0.9380 0.9400 0.9400 0.9400
5.251191 0.9360 0.9350 0.9350 0.9330 0.9300
5.284000 0.9280 0.9230 0.9230 0.9210 0.9230
5.317191 0.9300 0.9350 0.9350 0.9310 0.9300
5.351000 0.9280 0.9260 0.9230 0.9210 0.9200
5.384191 0.9180 0.9180 0.9180 0.9180 0.9130
5.417000 0.9110 0.9050 0.8970 0.8870 0.8750
5.450191 0.8620 0.8470 0.8370 0.8270 0.8130
5.483000 0.8050 0.8020 0.8020 0.8080 0.8280
5.516191 0.8400 0.8400 0.8400 0.8380 0.8350
5.550000 0.8230 0.8220 0.8230 0.8400 0.8520
5.583191 0.8600 0.8700 0.8780 0.8870 0.8950
5.616000 0.9010 0.9050 0.9080 0.9100 0.9100
5.649191 0.9100 0.9100 0.9100 0.9100 0.9080
5.682000 0.9050 0.9010 0.9000 0.9010 0.9010
5.715191 0.9050 0.9100 0.9110 0.9110 0.9110
5.749000 0.9110 0.9110 0.9110 0.9110 0.9110
5.782191 0.9080 0.8970 0.8820 0.8680 0.8680
5.815000 0.8720 0.8870 0.8970 0.8980 0.9010
5.848191 0.9030 0.9030 0.9080 0.9100 0.9130
5.882000 0.9130 0.9150 0.9160 0.9160 0.9160
5.915191 0.9160 0.9180 0.9180 0.9210 0.9230
5.948000 0.9230 0.9230 0.9210 0.9180 0.9160
5.981191 0.9160 0.9130 0.9110 0.9080 0.9060
6.014000 0.9010 0.8980 0.8950 0.8930 0.8920
6.047191 0.8900 0.8800 0.8730 0.8580 0.8380
6.081000 0.8100 0.7970 0.7900 0.7650 0.7200
6.114191 0.6520 0.6170 0.6010 0.5980 0.6010
6.147000 0.6070 0.6220 0.6420 0.6720 0.7120
6.180191 0.7300 0.7350 0.7450 0.7550 0.7570
6.213000 0.7590 0.7550 0.7450 0.7300 0.7150
6.246191 0.7000 0.6970 0.6970 0.6990 0.7190
6.280000 0.7370 0.7500 0.7650 0.7790 0.7940
6.313191 0.8080 0.8270 0.8470 0.8520 0.8580
6.346000 0.8670 0.8730 0.8800 0.8820 0.8850
6.379191 0.8900 0.8950 0.9010 0.9030 0.9050
6.412000 0.9050 0.9050 0.9080 0.9080 0.9110
6.445191 0.9150 0.9160 0.9180 0.9200 0.9210
6.479000 0.9210 0.9200 0.9150 0.9130 0.9130
6.512191 0.9130 0.9130 0.9130 0.9130 0.9150
6.545000 0.9160 0.9160 0.9180 0.9180 0.9160
6.578191 0.9160 0.9150 0.9130 0.9110 0.9110
6.611000 0.9080 0.9050 0.8970 0.8900 0.8680
6.644191 0.8630 0.8630 0.8670 0.8730 0.8770
6.678000 0.8870 0.8950 0.9000 0.9010 0.9050
6.711191 0.9060 0.9060 0.9060 0.9080 0.9100
6.744000 0.9110 0.9130 0.9150 0.9150 0.9130
6.777191 0.9110 0.9100 0.9080 0.9080 0.9060
6.810000 0.9060 0.9050 0.9050 0.9030 0.9010
6.843191 0.9000 0.8950 0.8820 0.8620 0.8620
6.877000 0.8600 0.8600 0.8600 0.8580 0.8520
6.910191 0.8480 0.8420 0.8370 0.8280 0.8200
6.943000 0.8180 0.8180 0.8200 0.8230 0.8270
6.976191 0.8300 0.8350 0.8400 0.8450 0.8530
7.009000 0.8600 0.8670 0.8680 0.8680 0.8680
7.042191 0.8650 0.8620 0.8570 0.8520 0.8470
7.076000 0.8370 0.8280 0.8200 0.8150 0.8080
7.109191 0.8020 0.7970 0.7900 0.7840 0.7840
7.142000 0.7800 0.7750 0.7690 0.7600 0.7490
7.175191 0.7370 0.7240 0.7070 0.6910 0.6710
7.209000 0.6470 0.6240 0.5980 0.5690 0.5390
7.242191 0.5080 0.4710 0.4580 0.4250 0.3770
7.275000 0.3200 0.2590 0.1990 0.1440 0.1010
7.308191 0.0740 0.0590 0.0460 0.0440 0.0460
7.341000 0.0680 0.1010 0.1310 0.1640 0.2020
7.374191 0.2540 0.3220 0.4100 0.4700 0.5240
7.408000 0.5690 0.6020 0.6290 0.6490 0.6660
7.441191 0.6770 0.6870 0.6960 0.7050 0.7170
7.474000 0.7320 0.7500 0.7740 0.7920 0.8000
7.507191 0.8080 0.8150 0.8200 0.8270 0.8300
7.540000 0.8350 0.8380 0.8420 0.8450 0.8470
7.573191 0.8480 0.8520 0.8530 0.8530 0.8530
7.607000 0.8530 0.8530 0.8530 0.8530 0.8530
7.640191 0.8530 0.8520 0.8500 0.8480 0.8470
7.673000 0.8450 0.8380 0.8350 0.8300 0.8230
7.706191 0.8100 0.7820 0.7440 0.6990 0.6770
7.739000 0.6510 0.6490 0.6520 0.6670 0.6810
7.772191 0.6960 0.7350 0.7470 0.7690 0.7920
7.806000 0.8080 0.8100 0.8120 0.8130 0.8150
7.839191 0.8170 0.8180 0.8200 0.8220 0.8230
7.872000 0.8230 0.8250 0.8270 0.8270 0.8280
7.905191 0.8280 0.8320 0.8330 0.8330 0.8320
7.938000 0.8270 0.8230 0.8180 0.8120 0.8070
7.971191 0.8000 0.7940 0.7840 0.7750 0.7640
8.005000 0.7490 0.7340 0.7140 0.6920 0.6660
8.038191 0.6360 0.6010 0.5490 0.5110 0.4510
8.071000 0.4430 0.4430 0.4480 0.5000 0.5360
8.104191 0.5710 0.6040 0.6390 0.6720 0.7050
8.137000 0.7370 0.7500 0.7620 0.7720 0.7840
8.170191 0.7920 0.8020 0.8100 0.8180 0.8270
8.204000 0.8350 0.8420 0.8500 0.8570 0.8630
8.237191 0.8650 0.8700 0.8720 0.8730 0.8750
8.270000 0.8770 0.8780 0.8820 0.8820 0.8830
8.303191 0.8830 0.8850 0.8850 0.8870 0.8870
8.336000 0.8870 0.8870 0.8880 0.8880 0.8900
8.369191 0.8920 0.8920 0.8920 0.8930 0.8930
8.403000 0.8930 0.8930 0.8930 0.8920 0.8920
8.436191 0.8920 0.8920 0.8920 0.8920 0.8900
8.469000 0.8900 0.8880 0.8880 0.8880 0.8870
8.502191 0.8870 0.8870 0.8880 0.8880 0.8900
8.536000 0.8920 0.8930 0.8950 0.8950 0.8970
8.569191 0.8970 0.8970 0.8970 0.8950 0.8930
8.602000 0.8920 0.8900 0.8880 0.8880 0.8900
8.635191 0.8920 0.8920 0.8950 0.8970 0.8980
8.668000 0.8980 0.8980 0.8980 0.8980 0.9000
8.701191 0.9010 0.9010 0.9010 0.9010 0.9010
8.735000 0.9010 0.9030 0.9030 0.9030 0.9030
8.768191 0.9030 0.9010 0.9010 0.9010 0.8980
8.801000 0.8970 0.8970 0.8930 0.8920 0.8830
8.834191 0.8800 0.8770 0.8750 0.8750 0.8750
8.867000 0.8730 0.8730 0.8720 0.8700 0.8700
8.900191 0.8650 0.8620 0.8600 0.8580 0.8570
8.934000 0.8550 0.8530 0.8500 0.8450 0.8370
8.967191 0.8270 0.8220 0.8180 0.8170 0.8130
9.000000 0.8070 0.7950 0.7770 0.7750 0.7750
9.033191 0.7800 0.7820 0.7850 0.7870 0.7890
9.066000 0.7900 0.7890 0.7850 0.7840 0.7800
9.099191 0.7750 0.7700 0.7600 0.7490 0.7320
9.133000 0.7190 0.7050 0.6860 0.6660 0.6510
9.166191 0.6490 0.6510 0.6610 0.6610 0.6710
9.199000 0.6870 0.7090 0.7300 0.7500 0.7640
9.232191 0.7690 0.7770 0.7850 0.7920 0.7970
9.265000 0.8020 0.8070 0.8100 0.8130 0.8170
9.298191 0.8220 0.8230 0.8230 0.8270 0.8280
9.332000 0.8320 0.8330 0.8370 0.8380 0.8380
9.365191 0.8400 0.8420 0.8420 0.8450 0.8470
9.398000 0.8480 0.8480 0.8480 0.8500 0.8500
9.431191 0.8520 0.8530 0.8570 0.8600 0.8620
9.464000 0.8650 0.8650 0.8680 0.8680 0.8670
9.497191 0.8650 0.8650 0.8630 0.8630 0.8650
9.531000 0.8650 0.8680 0.8700 0.8700 0.8720
9.564191 0.8720 0.8720 0.8680 0.8680 0.8670
9.597000 0.8670 0.8670 0.8670 0.8670 0.8670
9.630191 0.8670 0.8680 0.8680 0.8680 0.8680
9.664000 0.8670 0.8670 0.8670 0.8650 0.8630
9.697191 0.8630 0.8620 0.8580 0.8580 0.8550
9.730000 0.8550 0.8550 0.8530 0.8530 0.8520
9.763191 0.8500 0.8500 0.8480 0.8480 0.8480
9.796000 0.8480 0.8480 0.8480 0.8480 0.8500
9.829191 0.8500 0.8500 0.8500 0.8520 0.8530
9.863000 0.8530 0.8530 0.8530 0.8530 0.8530
9.896191 0.8520 0.8520 0.8520 0.8500 0.8470
9.929000 0.8450 0.8420 0.8400 0.8380 0.8370
9.962191 0.8370 0.8370 0.8350 0.8320 0.8300
9.995000 0.8280 0.8230 0.8200 0.8170 0.8130
10.028191 0.8100 0.8070 0.8030 0.8000 0.7970
10.062000 0.7920 0.7900 0.7890 0.7890 0.7900
10.095191 0.7920 0.7940 0.7950 0.7970 0.7970
10.128000 0.7970 0.7970 0.7970 0.7950 0.7940
10.161191 0.7900 0.7900 0.7890 0.7840 0.7790
10.194000 0.7720 0.7650 0.7600 0.7540 0.7470
10.227191 0.7390 0.7320 0.7240 0.7150 0.7050
10.261000 0.6970 0.6860 0.6760 0.6640 0.6520
10.294191 0.6390 0.6260 0.6120 0.5960 0.5810
10.327000 0.5580 0.5360 0.5110 0.4830 0.4550
10.360191 0.4230 0.3920 0.3620 0.3300 0.3000
10.393000 0.2640 0.2250 0.1860 0.1660 0.1440
10.426191 0.1320 0.1220 0.1170 0.1160 0.1170
10.460000 0.1240 0.1340 0.1490 0.1710 0.2000
10.493191 0.2350 0.2640 0.2900 0.3170 0.3450
10.526000 0.3720 0.3970 0.4210 0.4450 0.4680
10.559191 0.4900 0.5080 0.5240 0.5390 0.5530
10.592000 0.5610 0.5730 0.5830 0.5890 0.5960
10.625191 0.6020 0.6060 0.6110 0.6170 0.6220
10.659000 0.6270 0.6310 0.6320 0.6360 0.6420
10.692191 0.6440 0.6440 0.6420 0.6410 0.6390
10.725000 0.6370 0.6340 0.6320 0.6310 0.6290
10.758191 0.6270 0.6240 0.6190 0.6120 0.6060
10.791000 0.5960 0.5840 0.5730 0.5580 0.5410
10.824191 0.5290 0.5130 0.4950 0.4760 0.4580
10.858000 0.4380 0.4180 0.3980 0.3730 0.3470
10.891191 0.3170 0.2800 0.2470 0.2120 0.1820
10.924000 0.1570 0.1420 0.1270 0.1160 0.1010
10.957191 0.0980 0.0980 0.1010 0.1170 0.1320
10.991000 0.1490 0.1660 0.1860 0.2090 0.2250
11.024191 0.2370 0.2470 0.2570 0.2670 0.2770
11.057000 0.2920 0.3020 0.3100 0.3150 0.3180
11.090191 0.3180 0.3130 0.2940 0.2820 0.2670
11.123000 0.2470 0.2270 0.2070 0.1890 0.1720
11.156191 0.1540 0.1340 0.1140 0.0930 0.0760
11.190000 0.0680 0.0560 0.0480 0.0440 0.0430
11.223191 0.0410 0.0410 0.0390 0.0390 0.0390
11.256000 0.0410 0.0440 0.0480 0.0530 0.0540
11.289191 0.0560 0.0590 0.0660 0.0760 0.0890
11.322000 0.1040 0.1220 0.1390 0.1590 0.1790
11.355191 0.1990 0.2170 0.2420 0.2650 0.2820
11.389000 0.3070 0.3380 0.3670 0.3920 0.4050
11.422191 0.4260 0.4460 0.4650 0.4830 0.4980
11.455000 0.5130 0.5260 0.5380 0.5490 0.5590
11.488191 0.5690 0.5790 0.5880 0.5960 0.6040
11.521000 0.6120 0.6210 0.6290 0.6360 0.6440
11.554191 0.6490 0.6560 0.6610 0.6670 0.6710
11.588000 0.6760 0.6810 0.6860 0.6890 0.6940
11.621191 0.6970 0.7020 0.7070 0.7120 0.7170
11.654000 0.7220 0.7270 0.7320 0.7370 0.7420
11.687191 0.7450 0.7500 0.7550 0.7590 0.7620
11.720000 0.7670 0.7690 0.7720 0.7740 0.7770
11.753191 0.7790 0.7790 0.7800 0.7820 0.7840
11.787000 0.7850 0.7870 0.7870 0.7900 0.7920
11.820191 0.7920 0.7940 0.7940 0.7950 0.7970
11.853000 0.7970 0.7990 0.7990 0.8000 0.8000
11.886191 0.8020 0.8020 0.8050 0.8070 0.8070
11.919000 0.8080 0.8080 0.8080 0.8080 0.8070
11.952191 0.8070 0.8070 0.8080 0.8080 0.8080
11.986000 0.8080 0.8080 0.8050 0.8050 0.8030
12.019191 0.8030 0.8030 0.8030 0.8030 0.8030
12.052000 0.8050 0.8050 0.8070 0.8070 0.8050
12.085191 0.8020 0.8000 0.7990 0.7970 0.7970
12.118000 0.7950 0.7940 0.7940 0.7900 0.7870
12.151191 0.7850 0.7840 0.7840 0.7840 0.7820
12.185000 0.7790 0.7770 0.7720 0.7700 0.7650
12.218191 0.7520 0.7470 0.7400 0.7390 0.7370
12.251000 0.7350 0.7340 0.7320 0.7320 0.7320
12.284191 0.7320 0.7320 0.7300 0.7250 0.7200
12.318000 0.7150 0.7090 0.7020 0.6940 0.6860
12.351191 0.6760 0.6620 0.6490 0.6320 0.6140
12.384000 0.5940 0.5710 0.5440 0.5160 0.4830
12.417191 0.4460 0.4300 0.3970 0.3770 0.3580
12.450000 0.3430 0.3320 0.3300 0.3320 0.3520
12.483191 0.3770 0.4030 0.4350 0.4650 0.4960
12.517000 0.5280 0.5540 0.5790 0.5990 0.6160
12.550191 0.6310 0.6440 0.6570 0.6690 0.6810
12.583000 0.6910 0.7040 0.7090 0.7140 0.7190
12.616191 0.7240 0.7290 0.7320 0.7370 0.7450
12.649000 0.7500 0.7520 0.7520 0.7550 0.7600
12.682191 0.7670 0.7700 0.7750 0.7770 0.7790
12.716000 0.7840 0.7850 0.7870 0.7870 0.7890
12.749191 0.7900 0.7920 0.7940 0.7970 0.8000
12.782000 0.8030 0.8050 0.8070 0.8080 0.8080
12.815191 0.8080 0.8080 0.8080 0.8080 0.8080
12.848000 0.8080 0.8080 0.8100 0.8100 0.8120
12.881191 0.8120 0.8130 0.8150 0.8150 0.8170
12.915000 0.8170 0.8180 0.8200 0.8220 0.8230
12.948191 0.8230 0.8230 0.8230 0.8230 0.8230
12.981000 0.8230 0.8230 0.8230 0.8230 0.8230
13.014191 0.8230 0.8230 0.8220 0.8220 0.8220
13.047000 0.8200 0.8200 0.8180 0.8180 0.8170
13.080191 0.8150 0.8150 0.8130 0.8100 0.8030
13.114000 0.7970 0.7950 0.7900 0.7870 0.7820
13.147191 0.7750 0.7670 0.7600 0.7540 0.7450
13.180000 0.7400 0.7350 0.7300 0.7200 0.7140
13.213191 0.7050 0.6970 0.6940 0.6840 0.6770
13.246000 0.6760 0.6740 0.6740 0.6790 0.6910
13.279191 0.7000 0.7090 0.7190 0.7270 0.7370
13.313000 0.7450 0.7550 0.7640 0.7720 0.7800
13.346191 0.7890 0.7920 0.7950 0.7990 0.7990
13.379000 0.8000 0.8030 0.8070 0.8080 0.8100
13.412191 0.8120 0.8150 0.8150 0.8150 0.8150
13.445000 0.8150 0.8150 0.8150 0.8150 0.8150
13.478191 0.8130 0.8130 0.8120 0.8100 0.8100
13.512000 0.8100 0.8120 0.8150 0.8150 0.8130
13.545191 0.8100 0.8080 0.8070 0.8050 0.8050
13.578000 0.8020 0.8020 0.8000 0.8000 0.7990
13.611191 0.7900 0.7890 0.7890 0.7890 0.7870
13.645000 0.7850 0.7840 0.7820 0.7800 0.7790
13.678191 0.7740 0.7700 0.7690 0.7640 0.7570
13.711000 0.7540 0.7450 0.7400 0.7340 0.7220
13.744191 0.7140 0.7050 0.6990 0.6910 0.6870
13.777000 0.6860 0.6840 0.6840 0.6840 0.6860
13.810191 0.6960 0.7040 0.7090 0.7150 0.7190
13.844000 0.7290 0.7340 0.7350 0.7450 0.7490
13.877191 0.7500 0.7570 0.7570 0.7570 0.7570
13.910000 0.7570 0.7590 0.7590 0.7620 0.7620
13.943191 0.7640 0.7640 0.7640 0.7640 0.7640
13.976000 0.7640 0.7640 0.7640 0.7640 0.7620
14.009191 0.7600 0.7590 0.7570 0.7570 0.7570
14.043000 0.7550 0.7550 0.7540 0.7540 0.7540
14.076191 0.7520 0.7520 0.7500 0.7490 0.7470
14.109000 0.7470 0.7450 0.7420 0.7400 0.7390
14.142191 0.7370 0.7320 0.7300 0.7290 0.7250
14.175000 0.7220 0.7190 0.7100 0.7090 0.7070
14.208191 0.7040 0.7020 0.7000 0.6990 0.6920
14.242000 0.6910 0.6910 0.6890 0.6890 0.6870
14.275191 0.6840 0.6820 0.6790 0.6790 0.6790
14.308000 0.6770 0.6770 0.6760 0.6740 0.6740
14.341191 0.6710 0.6710 0.6690 0.6670 0.6660
14.374000 0.6640 0.6640 0.6610 0.6590 0.6540
14.407191 0.6520 0.6510 0.6490 0.6490 0.6470
14.441000 0.6460 0.6440 0.6410 0.6370 0.6320
14.474191 0.6260 0.6210 0.6190 0.6160 0.6110
14.507000 0.6040 0.5990 0.5990 0.5990 0.5960
14.540191 0.5890 0.5830 0.5790 0.5780 0.5730
14.573000 0.5690 0.5660 0.5630 0.5610 0.5540
14.606191 0.5530 0.5510 0.5510 0.5490 0.5460
14.640000 0.5430 0.5380 0.5310 0.5230 0.5160
14.673191 0.5090 0.5030 0.4980 0.4950 0.4910
14.706000 0.4880 0.4830 0.4800 0.4780 0.4760
14.739191 0.4730 0.4700 0.4650 0.4560 0.4500
14.773000 0.4430 0.4380 0.4310 0.4280 0.4230
14.806191 0.4200 0.4150 0.4060 0.4030 0.4000
14.839000 0.3950 0.3900 0.3870 0.3800 0.3720
14.872191 0.3630 0.3550 0.3520 0.3480 0.3470
14.905000 0.3430 0.3420 0.3400 0.3370 0.3320
14.938191 0.3270 0.3230 0.3220 0.3200 0.3180
14.972000 0.3180 0.3180 0.3200 0.3250 0.3350
15.005191 0.3450 0.3520 0.3580 0.3670 0.3730
15.038000 0.3830 0.3920 0.3980 0.4050 0.4110
15.071191 0.4150 0.4160 0.4150 0.4100 0.4050
15.104000 0.4010 0.3970 0.3900 0.3830 0.3720
15.137191 0.3650 0.3600 0.3520 0.3480 0.3480
15.171000 0.3470 0.3470 0.3470 0.3480 0.3500
15.204191 0.3520 0.3520 0.3550 0.3550 0.3570
15.237000 0.3600 0.3620 0.3630 0.3680 0.3750
15.270191 0.3780 0.3820 0.3850 0.3850 0.3870
15.303000 0.3870 0.3880 0.3920 0.3950 0.4010
15.336191 0.4100 0.4160 0.4210 0.4260 0.4310
15.370000 0.4350 0.4400 0.4430 0.4460 0.4510
15.403191 0.4580 0.4650 0.4710 0.4780 0.4830
15.436000 0.4880 0.4910 0.4960 0.5040 0.5130
15.469191 0.5230 0.5310 0.5380 0.5460 0.5540
15.502000 0.5580 0.5630 0.5690 0.5740 0.5790
15.535191 0.5840 0.5890 0.5940 0.5980 0.6010
15.569000 0.6060 0.6110 0.6170 0.6240 0.6290
15.602191 0.6370 0.6490 0.6520 0.6540 0.6570
15.635000 0.6610 0.6660 0.6670 0.6710 0.6740
15.668191 0.6790 0.6840 0.6920 0.6970 0.7000
15.701000 0.7020 0.7020 0.7050 0.7070 0.7100
15.734191 0.7120 0.7190 0.7240 0.7270 0.7300
15.768000 0.7340 0.7370 0.7400 0.7420 0.7450
15.801191 0.7490 0.7520 0.7550 0.7550 0.7570
15.834000 0.7570 0.7570 0.7590 0.7620 0.7670
15.867191 0.7670 0.7700 0.7740 0.7750 0.7770
15.900000 0.7820 0.7840 0.7840 0.7870 0.7870
15.933191 0.7890 0.7900 0.7900 0.7920 0.7920
15.967000 0.7920 0.7920 0.7920 0.7940 0.7950
16.000191 0.7950
##END=
