##TITLE=ETHYL THIOCYANATE
$$ E.K. (W.L.)
##JCAMP-DX=4.24
##DATA TYPE=INFRARED SPECTRUM
##CLASS=COBLENTZ
##ORIGIN=WYANDOTTE CHEMICALS CORP., WYANDOTTE, MICHIGAN, USA
##OWNER=COBLENTZ SOCIETY
Collection (C) 2018 copyright by the U.S. Secretary of Commerce
on behalf of the United States of America. All rights reserved.
##DATE=Not specified, most likely prior to 1970
##CAS REGISTRY NO=542-90-5
##MOLFORM=C3 H5 N S
##BP=144-145 C
##SOURCE REFERENCE=COBLENTZ NO. 1384
##$NIST SOURCE=COBLENTZ
##$NIST IMAGE=cob1384
##SPECTROMETER/DATA SYSTEM=Not specified, most likely a prism, grating, or hybrid spectrometer.
##STATE=LIQUID
##PATH LENGTH=0.005 CM
##SAMPLING PROCEDURE=TRANSMISSION
##RESOLUTION=4
##DATA PROCESSING=DIGITIZED BY NIST FROM HARD COPY
##XUNITS=MICROMETERS
##YUNITS=TRANSMITTANCE
##XFACTOR=1.000000
##YFACTOR=1
##DELTAX=000.006809
##FIRSTX=2.041
##LASTX=15.9797
##FIRSTY=0.969
##MAXX=15.9797
##MINX=2.041
##MAXY=0.971
##MINY=0.03
##NPOINTS=2048
##XYDATA=(X++(Y..Y))
2.041000 0.9690 0.9710 0.9710 0.9710 0.9710
2.075063 0.9710 0.9710 0.9690 0.9690 0.9690
2.109000 0.9690 0.9690 0.9670 0.9670 0.9650
2.143063 0.9620 0.9590 0.9520 0.9420 0.9250
2.177000 0.8820 0.8450 0.8230 0.8070 0.7890
2.211063 0.7870 0.7870 0.7900 0.8140 0.8330
2.245000 0.8570 0.8690 0.8690 0.8630 0.8410
2.279063 0.8280 0.8230 0.8230 0.8310 0.8430
2.313000 0.8500 0.8530 0.8650 0.8820 0.8990
2.347063 0.9010 0.9090 0.9110 0.9130 0.9130
2.381000 0.9140 0.9130 0.9060 0.9010 0.8910
2.415063 0.8800 0.8700 0.8650 0.8630 0.8630
2.449000 0.8650 0.8690 0.8700 0.8790 0.8890
2.483063 0.9010 0.9080 0.9130 0.9140 0.9140
2.518000 0.9200 0.9230 0.9250 0.9330 0.9350
2.552063 0.9380 0.9400 0.9420 0.9420 0.9420
2.586000 0.9420 0.9420 0.9400 0.9400 0.9380
2.620063 0.9380 0.9370 0.9370 0.9380 0.9380
2.654000 0.9380 0.9380 0.9380 0.9350 0.9350
2.688063 0.9330 0.9250 0.9110 0.8920 0.8740
2.722000 0.8600 0.8500 0.8400 0.8280 0.8280
2.756063 0.8290 0.8360 0.8400 0.8410 0.8410
2.790000 0.8430 0.8430 0.8430 0.8330 0.8260
2.824063 0.8240 0.8240 0.8240 0.8240 0.8260
2.858000 0.8330 0.8350 0.8430 0.8500 0.8520
2.892063 0.8580 0.8620 0.8620 0.8630 0.8620
2.926000 0.8580 0.8520 0.8500 0.8310 0.8190
2.960063 0.8020 0.7950 0.7900 0.7840 0.7750
2.994000 0.7750 0.7920 0.8020 0.8090 0.8190
3.028063 0.8190 0.8120 0.8090 0.8010 0.7900
3.062000 0.7850 0.7840 0.7840 0.7820 0.7800
3.096063 0.7780 0.7780 0.7730 0.7610 0.7550
3.130000 0.7500 0.7500 0.7500 0.7480 0.7460
3.164063 0.7460 0.7440 0.7430 0.7340 0.7270
3.198000 0.7210 0.7150 0.7100 0.7040 0.7000
3.232063 0.6930 0.6830 0.6780 0.6640 0.6510
3.267000 0.6410 0.6300 0.6200 0.6000 0.5810
3.301063 0.5640 0.5510 0.5100 0.4310 0.3330
3.335000 0.2430 0.1410 0.0640 0.0420 0.0400
3.369063 0.0420 0.0450 0.0620 0.0810 0.1000
3.403000 0.1020 0.1050 0.1080 0.1170 0.1200
3.437063 0.1610 0.2100 0.2550 0.2890 0.3010
3.471000 0.3010 0.2900 0.2890 0.2240 0.2140
3.505063 0.2100 0.2140 0.3330 0.4210 0.4370
3.539000 0.4330 0.4280 0.4230 0.4230 0.4540
3.573063 0.5300 0.6250 0.6800 0.7120 0.7310
3.607000 0.7500 0.7560 0.7630 0.7700 0.7700
3.641063 0.7700 0.7700 0.7720 0.7720 0.7700
3.675000 0.7560 0.7560 0.7650 0.7700 0.7750
3.709063 0.7850 0.7890 0.7900 0.7920 0.7940
3.743000 0.7940 0.8010 0.8120 0.8290 0.8350
3.777063 0.8380 0.8400 0.8430 0.8500 0.8500
3.811000 0.8500 0.8500 0.8450 0.8410 0.8330
3.845063 0.8230 0.8230 0.8290 0.8330 0.8350
3.879000 0.8400 0.8430 0.8460 0.8500 0.8500
3.913063 0.8520 0.8500 0.8430 0.8410 0.8210
3.947000 0.8020 0.7770 0.7770 0.7920 0.7970
3.981063 0.8120 0.8350 0.8400 0.8400 0.8400
4.016000 0.8310 0.8210 0.8160 0.8160 0.8160
4.050063 0.8140 0.8110 0.8040 0.8040 0.8040
4.084000 0.8020 0.8020 0.8040 0.8120 0.8210
4.118063 0.8310 0.8350 0.8310 0.8310 0.8290
4.152000 0.8240 0.8120 0.8040 0.7950 0.7870
4.186063 0.7850 0.8060 0.8120 0.8290 0.8360
4.220000 0.8400 0.8480 0.8500 0.8530 0.8550
4.254063 0.8550 0.8600 0.8630 0.8650 0.8670
4.288000 0.8700 0.8740 0.8800 0.8800 0.8820
4.322063 0.8800 0.8770 0.8750 0.8740 0.8720
4.356000 0.8700 0.8670 0.8650 0.8630 0.8620
4.390063 0.8600 0.8580 0.8550 0.8550 0.8550
4.424000 0.8550 0.8530 0.8530 0.8520 0.8500
4.458063 0.8430 0.8360 0.8350 0.8330 0.8290
4.492000 0.8230 0.8120 0.8060 0.8020 0.7940
4.526063 0.7800 0.7650 0.7410 0.7310 0.7100
4.560000 0.7000 0.6810 0.6750 0.6700 0.6610
4.594063 0.6530 0.6410 0.6320 0.6200 0.6000
4.628000 0.5810 0.5610 0.5400 0.4930 0.4550
4.662063 0.4310 0.4110 0.4010 0.3700 0.3310
4.696000 0.2530 0.1810 0.1120 0.0950 0.0560
4.730063 0.0490 0.0490 0.1100 0.1610 0.2410
4.765000 0.3040 0.3520 0.3650 0.3740 0.3740
4.799063 0.3740 0.3750 0.3820 0.3940 0.4080
4.833000 0.4380 0.4770 0.5010 0.5280 0.5420
4.867063 0.5680 0.5880 0.6080 0.6320 0.6510
4.901000 0.6680 0.6780 0.6880 0.6980 0.7090
4.935063 0.7140 0.7190 0.7220 0.7290 0.7380
4.969000 0.7440 0.7480 0.7560 0.7670 0.7700
5.003063 0.7800 0.7870 0.7940 0.7990 0.8010
5.037000 0.8020 0.8090 0.8190 0.8230 0.8230
5.071063 0.8240 0.8240 0.8260 0.8290 0.8290
5.105000 0.8350 0.8380 0.8400 0.8450 0.8460
5.139063 0.8500 0.8500 0.8500 0.8500 0.8500
5.173000 0.8450 0.8430 0.8400 0.8380 0.8350
5.207063 0.8290 0.8230 0.8190 0.8160 0.8140
5.241000 0.8140 0.8190 0.8210 0.8240 0.8310
5.275063 0.8310 0.8290 0.8280 0.8260 0.8260
5.309000 0.8280 0.8350 0.8410 0.8450 0.8500
5.343063 0.8520 0.8550 0.8550 0.8600 0.8630
5.377000 0.8650 0.8650 0.8650 0.8650 0.8690
5.411063 0.8700 0.8700 0.8720 0.8720 0.8720
5.446000 0.8720 0.8720 0.8720 0.8720 0.8700
5.480063 0.8690 0.8690 0.8690 0.8670 0.8650
5.514000 0.8650 0.8650 0.8650 0.8630 0.8630
5.548063 0.8650 0.8650 0.8650 0.8650 0.8650
5.582000 0.8650 0.8650 0.8650 0.8650 0.8630
5.616063 0.8620 0.8620 0.8600 0.8580 0.8550
5.650000 0.8550 0.8530 0.8530 0.8520 0.8500
5.684063 0.8460 0.8450 0.8410 0.8350 0.8290
5.718000 0.8260 0.8240 0.8210 0.8140 0.8090
5.752063 0.8010 0.7920 0.7820 0.7630 0.7580
5.786000 0.7440 0.7290 0.7210 0.7120 0.7040
5.820063 0.6970 0.6810 0.6630 0.6540 0.6490
5.854000 0.6390 0.6220 0.6000 0.5790 0.5510
5.888063 0.5110 0.5030 0.4860 0.4860 0.4940
5.922000 0.5080 0.5130 0.5280 0.5490 0.5540
5.956063 0.5620 0.5640 0.5710 0.5790 0.5900
5.990000 0.6000 0.6120 0.6240 0.6320 0.6410
6.024063 0.6490 0.6490 0.6510 0.6510 0.6510
6.058000 0.6420 0.6420 0.6510 0.6510 0.6540
6.092063 0.6580 0.6590 0.6610 0.6610 0.6590
6.126000 0.6590 0.6590 0.6610 0.6610 0.6630
6.160063 0.6630 0.6640 0.6640 0.6640 0.6640
6.195000 0.6710 0.6710 0.6640 0.6640 0.6630
6.229063 0.6610 0.6630 0.6640 0.6640 0.6640
6.263000 0.6660 0.6710 0.6750 0.6750 0.6780
6.297063 0.6750 0.6700 0.6640 0.6590 0.6540
6.331000 0.6510 0.6420 0.6410 0.6360 0.6340
6.365063 0.6290 0.6120 0.6070 0.5910 0.5710
6.399000 0.5620 0.5590 0.5510 0.5420 0.5320
6.433063 0.5250 0.5230 0.5180 0.5130 0.5080
6.467000 0.5050 0.5030 0.5010 0.5010 0.5010
6.501063 0.5010 0.5000 0.5000 0.4960 0.4940
6.535000 0.4890 0.4840 0.4810 0.4790 0.4740
6.569063 0.4740 0.4740 0.4760 0.4820 0.4890
6.603000 0.5000 0.5030 0.5060 0.5080 0.5100
6.637063 0.5110 0.5080 0.5050 0.5050 0.5030
6.671000 0.5000 0.4890 0.4790 0.4650 0.4520
6.705063 0.4450 0.4380 0.4280 0.4140 0.4010
6.739000 0.3800 0.3630 0.3410 0.3110 0.2730
6.773063 0.2500 0.2140 0.2120 0.1410 0.1100
6.807000 0.0830 0.0680 0.0620 0.0540 0.0420
6.841063 0.0370 0.0370 0.0350 0.0340 0.0320
6.875000 0.0320 0.0340 0.0370 0.0400 0.0510
6.909063 0.0540 0.0660 0.0730 0.0810 0.0850
6.944000 0.0930 0.0930 0.0830 0.0660 0.0570
6.978063 0.0540 0.0570 0.0680 0.0810 0.1120
7.012000 0.1420 0.1730 0.2040 0.2340 0.2720
7.046063 0.3010 0.3210 0.3400 0.3530 0.3630
7.080000 0.3720 0.3820 0.3910 0.3920 0.3970
7.114063 0.3970 0.3960 0.3940 0.3840 0.3720
7.148000 0.3600 0.3400 0.3120 0.3010 0.2800
7.182063 0.2500 0.2410 0.1850 0.1410 0.1030
7.216000 0.0730 0.0560 0.0560 0.0640 0.0760
7.250063 0.0930 0.1240 0.1630 0.2310 0.3020
7.284000 0.3430 0.3910 0.4330 0.4710 0.4910
7.318063 0.5050 0.5220 0.5320 0.5510 0.5540
7.352000 0.5640 0.5690 0.5690 0.5660 0.5640
7.386063 0.5540 0.5420 0.5250 0.5100 0.4840
7.420000 0.4640 0.4520 0.4500 0.4520 0.4600
7.454063 0.4710 0.4740 0.4740 0.4760 0.4760
7.488000 0.4760 0.4790 0.4810 0.5010 0.5200
7.522063 0.5390 0.5440 0.5510 0.5520 0.5590
7.556000 0.5610 0.5590 0.5510 0.5470 0.5390
7.590063 0.5300 0.5110 0.5000 0.4880 0.4720
7.625000 0.4520 0.4300 0.4110 0.3990 0.3820
7.659063 0.3520 0.3280 0.3190 0.2990 0.2780
7.693000 0.2680 0.2580 0.2510 0.2480 0.2310
7.727063 0.2190 0.2040 0.1980 0.1810 0.1610
7.761000 0.1420 0.1220 0.1190 0.1020 0.0790
7.795063 0.0590 0.0490 0.0400 0.0320 0.0320
7.829000 0.0300 0.0300 0.0300 0.0300 0.0300
7.863063 0.0300 0.0300 0.0320 0.0320 0.0320
7.897000 0.0340 0.0350 0.0350 0.0390 0.0440
7.931063 0.0510 0.0590 0.0610 0.0690 0.0860
7.965000 0.0930 0.0980 0.1000 0.1030 0.1070
7.999063 0.1100 0.1150 0.1170 0.1190 0.1220
8.033000 0.1290 0.1390 0.1460 0.1590 0.1800
8.067063 0.2020 0.2210 0.2390 0.2510 0.2680
8.101000 0.2890 0.2990 0.3110 0.3290 0.3500
8.135063 0.3600 0.3700 0.3800 0.3910 0.4090
8.169000 0.4210 0.4370 0.4500 0.4590 0.4690
8.203063 0.4880 0.5050 0.5130 0.5200 0.5300
8.237000 0.5400 0.5490 0.5540 0.5690 0.5810
8.271063 0.5910 0.5950 0.6000 0.6000 0.6080
8.305000 0.6120 0.6190 0.6200 0.6240 0.6340
8.339063 0.6390 0.6410 0.6470 0.6490 0.6510
8.374000 0.6530 0.6530 0.6590 0.6680 0.6710
8.408063 0.6760 0.6830 0.6900 0.6930 0.6950
8.442000 0.6980 0.6980 0.7020 0.7040 0.7090
8.476063 0.7100 0.7100 0.7100 0.7100 0.7100
8.510000 0.7100 0.7090 0.7090 0.7040 0.7040
8.544063 0.7040 0.7040 0.7040 0.7090 0.7090
8.578000 0.7090 0.7090 0.7090 0.7090 0.7040
8.612063 0.7040 0.7100 0.7100 0.7100 0.7100
8.646000 0.7100 0.7090 0.7040 0.7020 0.6980
8.680063 0.6880 0.6850 0.6850 0.6830 0.6810
8.714000 0.6810 0.6850 0.6880 0.6900 0.6920
8.748063 0.6930 0.6950 0.6970 0.6970 0.6980
8.782000 0.7000 0.6980 0.7000 0.6980 0.6980
8.816063 0.6980 0.6980 0.7000 0.7000 0.7000
8.850000 0.7000 0.7000 0.7000 0.6980 0.6980
8.884063 0.6950 0.6970 0.6980 0.6970 0.6930
8.918000 0.6920 0.6900 0.6850 0.6830 0.6830
8.952063 0.6810 0.6780 0.6710 0.6700 0.6700
8.986000 0.6700 0.6680 0.6680 0.6680 0.6660
9.020063 0.6660 0.6640 0.6640 0.6610 0.6590
9.054000 0.6580 0.6580 0.6540 0.6540 0.6530
9.088063 0.6530 0.6510 0.6510 0.6490 0.6460
9.123000 0.6440 0.6420 0.6410 0.6390 0.6370
9.157063 0.6360 0.6270 0.6200 0.6200 0.6150
9.191000 0.6130 0.6050 0.6020 0.6000 0.5910
9.225063 0.5850 0.5810 0.5730 0.5680 0.5590
9.259000 0.5490 0.5400 0.5200 0.5100 0.5000
9.293063 0.4790 0.4590 0.4330 0.4040 0.3790
9.327000 0.3500 0.3010 0.2510 0.2120 0.1800
9.361063 0.1390 0.1120 0.0950 0.0690 0.0690
9.395000 0.0760 0.0910 0.1200 0.1460 0.1590
9.429063 0.2000 0.2510 0.2890 0.3190 0.3410
9.463000 0.3720 0.3990 0.4090 0.4230 0.4420
9.497063 0.4520 0.4590 0.4640 0.4720 0.4810
9.531000 0.5000 0.5100 0.5200 0.5300 0.5400
9.565063 0.5490 0.5520 0.5680 0.5790 0.5830
9.599000 0.5880 0.5930 0.5980 0.6020 0.6030
9.633063 0.6080 0.6100 0.6130 0.6150 0.6150
9.667000 0.6150 0.6150 0.6150 0.6150 0.6150
9.701063 0.6190 0.6190 0.6150 0.6100 0.6020
9.735000 0.5950 0.5950 0.5930 0.5930 0.5910
9.769063 0.5900 0.5900 0.5880 0.5880 0.5860
9.804000 0.5900 0.5930 0.5950 0.6020 0.6030
9.838063 0.6050 0.6070 0.6080 0.6100 0.6100
9.872000 0.6120 0.6150 0.6190 0.6190 0.6190
9.906063 0.6150 0.6130 0.6130 0.6150 0.6150
9.940000 0.6150 0.6120 0.6080 0.6050 0.6030
9.974063 0.6030 0.6030 0.6030 0.6000 0.6000
10.008000 0.5910 0.5880 0.5860 0.5790 0.5740
10.042063 0.5740 0.5730 0.5680 0.5610 0.5520
10.076000 0.5510 0.5390 0.5300 0.5250 0.5180
10.110063 0.5030 0.4930 0.4810 0.4710 0.4500
10.144000 0.4420 0.4200 0.4010 0.3890 0.3770
10.178063 0.3460 0.3190 0.2890 0.2650 0.2410
10.212000 0.2100 0.1880 0.1730 0.1510 0.1200
10.246063 0.1000 0.0740 0.0640 0.0540 0.0510
10.280000 0.0420 0.0350 0.0340 0.0320 0.0320
10.314063 0.0340 0.0340 0.0350 0.0350 0.0370
10.348000 0.0390 0.0400 0.0440 0.0510 0.0560
10.382063 0.0690 0.0900 0.1020 0.1240 0.1490
10.416000 0.1760 0.1810 0.2020 0.2210 0.2380
10.450063 0.2610 0.2870 0.3070 0.3190 0.3380
10.484000 0.3500 0.3690 0.3800 0.4010 0.4200
10.518063 0.4280 0.4400 0.4500 0.4590 0.4690
10.553000 0.4790 0.4880 0.4980 0.5000 0.5010
10.587063 0.5080 0.5130 0.5200 0.5280 0.5340
10.621000 0.5370 0.5370 0.5390 0.5390 0.5420
10.655063 0.5440 0.5440 0.5490 0.5570 0.5680
10.689000 0.5730 0.5760 0.5810 0.5880 0.6000
10.723063 0.6080 0.6130 0.6200 0.6270 0.6320
10.757000 0.6390 0.6490 0.6540 0.6580 0.6610
10.791063 0.6680 0.6700 0.6710 0.6750 0.6780
10.825000 0.6810 0.6830 0.6880 0.6900 0.6920
10.859063 0.6920 0.6920 0.6920 0.6930 0.6930
10.893000 0.6970 0.6980 0.6980 0.7000 0.7020
10.927063 0.7020 0.7040 0.7090 0.7100 0.7100
10.961000 0.7140 0.7170 0.7210 0.7220 0.7260
10.995063 0.7270 0.7290 0.7290 0.7310 0.7310
11.029000 0.7320 0.7340 0.7380 0.7410 0.7430
11.063063 0.7440 0.7440 0.7440 0.7430 0.7440
11.097000 0.7460 0.7500 0.7530 0.7550 0.7550
11.131063 0.7580 0.7610 0.7630 0.7630 0.7650
11.165000 0.7650 0.7650 0.7650 0.7650 0.7650
11.199063 0.7650 0.7670 0.7680 0.7700 0.7700
11.233000 0.7720 0.7720 0.7720 0.7720 0.7720
11.267063 0.7720 0.7720 0.7720 0.7720 0.7720
11.302000 0.7720 0.7720 0.7720 0.7720 0.7700
11.336063 0.7700 0.7720 0.7730 0.7730 0.7730
11.370000 0.7730 0.7730 0.7730 0.7730 0.7730
11.404063 0.7720 0.7720 0.7730 0.7730 0.7730
11.438000 0.7730 0.7730 0.7730 0.7720 0.7720
11.472063 0.7720 0.7720 0.7720 0.7720 0.7700
11.506000 0.7700 0.7700 0.7700 0.7700 0.7700
11.540063 0.7720 0.7720 0.7720 0.7720 0.7720
11.574000 0.7720 0.7720 0.7720 0.7700 0.7680
11.608063 0.7680 0.7680 0.7680 0.7650 0.7630
11.642000 0.7630 0.7630 0.7630 0.7630 0.7630
11.676063 0.7630 0.7650 0.7650 0.7650 0.7650
11.710000 0.7630 0.7630 0.7630 0.7630 0.7610
11.744063 0.7610 0.7610 0.7610 0.7610 0.7610
11.778000 0.7600 0.7550 0.7550 0.7530 0.7530
11.812063 0.7530 0.7510 0.7530 0.7530 0.7510
11.846000 0.7510 0.7500 0.7500 0.7430 0.7410
11.880063 0.7390 0.7390 0.7390 0.7390 0.7390
11.914000 0.7380 0.7340 0.7340 0.7340 0.7320
11.948063 0.7320 0.7310 0.7310 0.7290 0.7290
11.982000 0.7270 0.7240 0.7190 0.7120 0.7090
12.016063 0.7050 0.7040 0.7020 0.6980 0.6970
12.051000 0.6970 0.6950 0.6950 0.6920 0.6880
12.085063 0.6850 0.6810 0.6780 0.6710 0.6680
12.119000 0.6610 0.6580 0.6540 0.6510 0.6440
12.153063 0.6420 0.6390 0.6340 0.6320 0.6300
12.187000 0.6220 0.6150 0.6080 0.6030 0.5960
12.221063 0.5930 0.5910 0.5900 0.5850 0.5790
12.255000 0.5740 0.5740 0.5730 0.5710 0.5690
12.289063 0.5620 0.5610 0.5610 0.5590 0.5560
12.323000 0.5560 0.5560 0.5540 0.5540 0.5540
12.357063 0.5540 0.5540 0.5520 0.5520 0.5510
12.391000 0.5510 0.5510 0.5510 0.5510 0.5510
12.425063 0.5510 0.5490 0.5490 0.5470 0.5470
12.459000 0.5450 0.5450 0.5440 0.5420 0.5400
12.493063 0.5370 0.5320 0.5280 0.5230 0.5150
12.527000 0.5080 0.5030 0.5000 0.4890 0.4790
12.561063 0.4710 0.4690 0.4650 0.4570 0.4480
12.595000 0.4380 0.4310 0.4260 0.4210 0.4090
12.629063 0.4010 0.3890 0.3790 0.3690 0.3580
12.663000 0.3500 0.3400 0.3290 0.3180 0.3110
12.697063 0.3010 0.2900 0.2840 0.2720 0.2610
12.732000 0.2580 0.2500 0.2410 0.2320 0.2270
12.766063 0.2120 0.2000 0.1930 0.1870 0.1780
12.800000 0.1700 0.1530 0.1390 0.1270 0.1220
12.834063 0.1120 0.1020 0.0900 0.0830 0.0790
12.868000 0.0710 0.0660 0.0640 0.0620 0.0610
12.902063 0.0590 0.0540 0.0540 0.0490 0.0470
12.936000 0.0470 0.0510 0.0540 0.0560 0.0610
12.970063 0.0680 0.0710 0.0740 0.0790 0.0910
13.004000 0.1080 0.1290 0.1440 0.1560 0.1590
13.038063 0.1800 0.2000 0.2140 0.2290 0.2500
13.072000 0.2600 0.2730 0.2890 0.3010 0.3140
13.106063 0.3290 0.3400 0.3580 0.3690 0.3740
13.140000 0.3890 0.4010 0.4090 0.4210 0.4330
13.174063 0.4480 0.4540 0.4600 0.4670 0.4770
13.208000 0.4880 0.4980 0.5050 0.5080 0.5130
13.242063 0.5200 0.5280 0.5370 0.5400 0.5510
13.276000 0.5590 0.5660 0.5730 0.5760 0.5790
13.310063 0.5850 0.5900 0.5950 0.5960 0.5980
13.344000 0.6000 0.6050 0.6120 0.6150 0.6170
13.378063 0.6190 0.6240 0.6290 0.6320 0.6340
13.412000 0.6370 0.6390 0.6420 0.6440 0.6470
13.446063 0.6510 0.6510 0.6540 0.6560 0.6560
13.481000 0.6580 0.6580 0.6590 0.6610 0.6630
13.515063 0.6640 0.6680 0.6700 0.6700 0.6700
13.549000 0.6710 0.6730 0.6730 0.6750 0.6760
13.583063 0.6760 0.6760 0.6800 0.6810 0.6810
13.617000 0.6830 0.6830 0.6830 0.6830 0.6850
13.651063 0.6880 0.6900 0.6930 0.6980 0.6980
13.685000 0.6980 0.7000 0.7000 0.7000 0.7000
13.719063 0.7000 0.6980 0.7000 0.7000 0.7020
13.753000 0.7020 0.7020 0.7020 0.7020 0.7020
13.787063 0.7020 0.7040 0.7050 0.7050 0.7050
13.821000 0.7050 0.7050 0.7070 0.7070 0.7070
13.855063 0.7090 0.7090 0.7090 0.7100 0.7100
13.889000 0.7120 0.7100 0.7100 0.7120 0.7120
13.923063 0.7140 0.7140 0.7140 0.7150 0.7150
13.957000 0.7150 0.7150 0.7150 0.7150 0.7140
13.991063 0.7140 0.7140 0.7140 0.7140 0.7150
14.025000 0.7150 0.7170 0.7170 0.7190 0.7190
14.059063 0.7190 0.7190 0.7190 0.7190 0.7190
14.093000 0.7190 0.7190 0.7210 0.7210 0.7210
14.127063 0.7210 0.7210 0.7190 0.7190 0.7170
14.161000 0.7150 0.7150 0.7150 0.7150 0.7150
14.195063 0.7150 0.7150 0.7170 0.7150 0.7150
14.230000 0.7150 0.7140 0.7140 0.7140 0.7140
14.264063 0.7120 0.7120 0.7090 0.7070 0.7070
14.298000 0.7050 0.7050 0.7040 0.7020 0.7020
14.332063 0.7020 0.7000 0.7000 0.7000 0.7000
14.366000 0.6980 0.6970 0.6950 0.6930 0.6920
14.400063 0.6900 0.6870 0.6830 0.6830 0.6810
14.434000 0.6760 0.6730 0.6700 0.6660 0.6630
14.468063 0.6630 0.6590 0.6530 0.6530 0.6490
14.502000 0.6440 0.6420 0.6390 0.6340 0.6270
14.536063 0.6200 0.6130 0.6100 0.6050 0.6020
14.570000 0.6000 0.5960 0.5910 0.5900 0.5780
14.604063 0.5690 0.5680 0.5640 0.5620 0.5610
14.638000 0.5610 0.5560 0.5520 0.5520 0.5520
14.672063 0.5520 0.5540 0.5540 0.5570 0.5610
14.706000 0.5620 0.5640 0.5690 0.5730 0.5760
14.740063 0.5810 0.5830 0.5850 0.5880 0.5900
14.774000 0.5930 0.6000 0.6020 0.6080 0.6120
14.808063 0.6150 0.6200 0.6250 0.6250 0.6290
14.842000 0.6300 0.6300 0.6320 0.6320 0.6320
14.876063 0.6320 0.6320 0.6340 0.6360 0.6370
14.911000 0.6390 0.6420 0.6470 0.6470 0.6470
14.945063 0.6470 0.6470 0.6440 0.6440 0.6440
14.979000 0.6420 0.6390 0.6370 0.6360 0.6360
15.013063 0.6360 0.6340 0.6340 0.6360 0.6360
15.047000 0.6370 0.6370 0.6370 0.6370 0.6370
15.081063 0.6370 0.6370 0.6370 0.6370 0.6360
15.115000 0.6360 0.6370 0.6370 0.6370 0.6370
15.149063 0.6360 0.6340 0.6300 0.6290 0.6270
15.183000 0.6250 0.6200 0.6150 0.6130 0.6100
15.217063 0.6080 0.6050 0.6030 0.6000 0.6000
15.251000 0.6000 0.5980 0.5930 0.5900 0.5860
15.285063 0.5850 0.5830 0.5790 0.5730 0.5620
15.319000 0.5620 0.5610 0.5610 0.5610 0.5610
15.353063 0.5610 0.5590 0.5590 0.5560 0.5540
15.387000 0.5540 0.5540 0.5540 0.5540 0.5590
15.421063 0.5610 0.5610 0.5610 0.5620 0.5660
15.455000 0.5680 0.5690 0.5690 0.5690 0.5690
15.489063 0.5710 0.5730 0.5730 0.5730 0.5730
15.523000 0.5730 0.5740 0.5740 0.5780 0.5780
15.557063 0.5780 0.5780 0.5780 0.5780 0.5780
15.591000 0.5780 0.5740 0.5740 0.5740 0.5740
15.625063 0.5740 0.5740 0.5740 0.5740 0.5740
15.660000 0.5740 0.5740 0.5730 0.5730 0.5710
15.694063 0.5680 0.5660 0.5640 0.5610 0.5540
15.728000 0.5540 0.5540 0.5540 0.5540 0.5540
15.762063 0.5540 0.5570 0.5570 0.5540 0.5540
15.796000 0.5510 0.5490 0.5490 0.5420 0.5420
15.830063 0.5400 0.5400 0.5390 0.5370 0.5350
15.864000 0.5350 0.5340 0.5340 0.5320 0.5270
15.898063 0.5250 0.5230 0.5220 0.5220 0.5220
15.932000 0.5220 0.5220 0.5200 0.5180 0.5180
15.966063 0.5180 0.5170 0.5170
##END=
