##TITLE=3-IODOPROPENE
$$ E.K. (W.L.)
##JCAMP-DX=4.24
##DATA TYPE=INFRARED SPECTRUM
##CLASS=COBLENTZ
##ORIGIN=WYANDOTTE CHEMICALS CORP., WYANDOTTE, MICHIGAN, USA
##OWNER=COBLENTZ SOCIETY
Collection (C) 2018 copyright by the U.S. Secretary of Commerce
on behalf of the United States of America. All rights reserved.
##DATE=Not specified, most likely prior to 1970
##NAMES=3-iodo-1-propene
##CAS REGISTRY NO=556-56-9
##MOLFORM=C3 H5 I
##SOURCE REFERENCE=COBLENTZ NO. 1311
##$NIST SOURCE=COBLENTZ
##$NIST IMAGE=cob1311
##SPECTROMETER/DATA SYSTEM=Not specified, most likely a prism, grating, or hybrid spectrometer.
##STATE=LIQUID
##PATH LENGTH=0.003 CM
##SAMPLING PROCEDURE=TRANSMISSION
##RESOLUTION=4
##DATA PROCESSING=DIGITIZED BY NIST FROM HARD COPY
##XUNITS=MICROMETERS
##YUNITS=TRANSMITTANCE
##XFACTOR=1.000000
##YFACTOR=1
##DELTAX=000.006803
##FIRSTX=2.027
##LASTX=15.9662
##FIRSTY=0.96
##MAXX=15.9662
##MINX=2.027
##MAXY=0.96
##MINY=0.03
##NPOINTS=2050
##XYDATA=(X++(Y..Y))
2.027000 0.9600 0.9600 0.9590 0.9590 0.9570
2.061030 0.9570 0.9570 0.9570 0.9570 0.9570
2.095000 0.9550 0.9570 0.9520 0.9520 0.9500
2.129030 0.9430 0.9380 0.9300 0.9250 0.9180
2.163000 0.9180 0.9130 0.9110 0.9090 0.9090
2.197030 0.9090 0.9090 0.9110 0.9130 0.9180
2.231000 0.9200 0.9210 0.9230 0.9210 0.9210
2.265030 0.9200 0.9180 0.9180 0.9180 0.9180
2.299000 0.9180 0.9160 0.9110 0.9090 0.9090
2.333030 0.9110 0.9180 0.9200 0.9210 0.9210
2.367000 0.9210 0.9210 0.9210 0.9210 0.9210
2.401030 0.9210 0.9210 0.9210 0.9230 0.9230
2.435000 0.9230 0.9210 0.9210 0.9210 0.9210
2.469030 0.9230 0.9230 0.9250 0.9280 0.9280
2.503000 0.9280 0.9280 0.9280 0.9280 0.9280
2.537030 0.9280 0.9280 0.9280 0.9250 0.9250
2.571000 0.9250 0.9230 0.9230 0.9210 0.9210
2.605030 0.9250 0.9250 0.9280 0.9300 0.9310
2.639000 0.9310 0.9310 0.9310 0.9300 0.9260
2.673030 0.9260 0.9250 0.9230 0.9230 0.9250
2.707000 0.9250 0.9250 0.9250 0.9250 0.9250
2.741030 0.9200 0.9160 0.9140 0.9110 0.9110
2.776000 0.9080 0.9060 0.9040 0.9030 0.9030
2.810030 0.9010 0.8990 0.8990 0.8970 0.8960
2.844000 0.8940 0.8940 0.8910 0.8910 0.8910
2.878030 0.8890 0.8890 0.8890 0.8890 0.8890
2.912000 0.8870 0.8860 0.8860 0.8860 0.8840
2.946030 0.8840 0.8840 0.8840 0.8840 0.8840
2.980000 0.8840 0.8820 0.8820 0.8820 0.8820
3.014030 0.8820 0.8820 0.8820 0.8820 0.8820
3.048000 0.8820 0.8820 0.8800 0.8790 0.8790
3.082030 0.8770 0.8770 0.8750 0.8750 0.8740
3.116000 0.8720 0.8700 0.8690 0.8670 0.8650
3.150030 0.8650 0.8630 0.8620 0.8550 0.8530
3.184000 0.8500 0.8430 0.8240 0.8160 0.8010
3.218030 0.7770 0.7260 0.6560 0.5570 0.5470
3.252000 0.5590 0.6360 0.6360 0.7240 0.7240
3.286030 0.7140 0.7020 0.6710 0.6510 0.6370
3.320000 0.6340 0.6300 0.6200 0.5810 0.5760
3.354030 0.5760 0.5810 0.6100 0.6370 0.6660
3.388000 0.6920 0.7100 0.7150 0.7220 0.7290
3.422030 0.7320 0.7380 0.7430 0.7440 0.7440
3.456000 0.7460 0.7460 0.7430 0.7310 0.7140
3.490030 0.7020 0.6880 0.6850 0.6850 0.6900
3.524000 0.7120 0.7310 0.7560 0.7750 0.7940
3.558030 0.8010 0.8070 0.8230 0.8280 0.8330
3.592000 0.8380 0.8410 0.8460 0.8500 0.8550
3.626030 0.8570 0.8580 0.8620 0.8630 0.8630
3.660000 0.8650 0.8650 0.8670 0.8670 0.8690
3.694030 0.8690 0.8690 0.8690 0.8700 0.8720
3.728000 0.8740 0.8770 0.8750 0.8770 0.8790
3.762030 0.8790 0.8790 0.8800 0.8820 0.8820
3.796000 0.8790 0.8790 0.8770 0.8790 0.8790
3.830030 0.8790 0.8790 0.8790 0.8770 0.8770
3.864000 0.8720 0.8700 0.8690 0.8690 0.8700
3.898030 0.8740 0.8770 0.8750 0.8770 0.8770
3.932000 0.8790 0.8800 0.8820 0.8820 0.8800
3.966030 0.8820 0.8820 0.8820 0.8820 0.8840
4.000000 0.8860 0.8870 0.8870 0.8870 0.8860
4.034030 0.8840 0.8800 0.8820 0.8800 0.8750
4.068000 0.8740 0.8750 0.8770 0.8790 0.8800
4.102030 0.8800 0.8800 0.8790 0.8790 0.8770
4.136000 0.8750 0.8750 0.8750 0.8750 0.8750
4.170030 0.8750 0.8750 0.8750 0.8750 0.8750
4.204000 0.8750 0.8770 0.8790 0.8790 0.8770
4.238030 0.8750 0.8740 0.8750 0.8790 0.8800
4.272000 0.8840 0.8860 0.8870 0.8860 0.8840
4.306030 0.8840 0.8840 0.8840 0.8840 0.8820
4.340000 0.8820 0.8820 0.8820 0.8790 0.8770
4.374030 0.8720 0.8650 0.8570 0.8480 0.8410
4.408000 0.8310 0.8280 0.8290 0.8330 0.8400
4.442030 0.8500 0.8550 0.8600 0.8630 0.8670
4.476000 0.8690 0.8650 0.8600 0.8580 0.8600
4.510030 0.8600 0.8630 0.8690 0.8700 0.8720
4.544000 0.8740 0.8720 0.8700 0.8690 0.8690
4.578030 0.8670 0.8670 0.8670 0.8670 0.8670
4.612000 0.8670 0.8670 0.8670 0.8670 0.8690
4.646030 0.8700 0.8690 0.8700 0.8700 0.8700
4.680000 0.8700 0.8700 0.8700 0.8720 0.8740
4.714030 0.8770 0.8790 0.8800 0.8790 0.8790
4.748000 0.8750 0.8740 0.8720 0.8720 0.8720
4.782030 0.8720 0.8700 0.8700 0.8690 0.8700
4.816000 0.8700 0.8740 0.8740 0.8750 0.8740
4.850030 0.8720 0.8690 0.8670 0.8670 0.8670
4.884000 0.8690 0.8690 0.8700 0.8720 0.8740
4.918030 0.8740 0.8750 0.8720 0.8700 0.8720
4.952000 0.8720 0.8740 0.8740 0.8740 0.8740
4.986030 0.8700 0.8690 0.8690 0.8670 0.8650
5.020000 0.8670 0.8670 0.8670 0.8670 0.8670
5.054030 0.8670 0.8630 0.8620 0.8600 0.8580
5.088000 0.8580 0.8570 0.8520 0.8500 0.8480
5.122030 0.8450 0.8400 0.8380 0.8380 0.8380
5.156000 0.8380 0.8400 0.8400 0.8410 0.8480
5.190030 0.8480 0.8520 0.8530 0.8530 0.8570
5.224000 0.8570 0.8550 0.8530 0.8500 0.8480
5.258030 0.8460 0.8450 0.8450 0.8460 0.8460
5.293000 0.8450 0.8450 0.8430 0.8410 0.8410
5.327030 0.8400 0.8350 0.8280 0.8140 0.8020
5.361000 0.7970 0.7950 0.7900 0.7780 0.7670
5.395030 0.7560 0.7430 0.7310 0.7170 0.7120
5.429000 0.7050 0.7000 0.6920 0.6900 0.6880
5.463030 0.6880 0.6920 0.7050 0.7210 0.7360
5.497000 0.7510 0.7650 0.7770 0.7890 0.8010
5.531030 0.8110 0.8190 0.8240 0.8280 0.8280
5.565000 0.8290 0.8330 0.8380 0.8410 0.8450
5.599030 0.8460 0.8480 0.8480 0.8500 0.8500
5.633000 0.8500 0.8500 0.8500 0.8500 0.8500
5.667030 0.8500 0.8500 0.8500 0.8500 0.8500
5.701000 0.8480 0.8460 0.8400 0.8360 0.8240
5.735030 0.8060 0.7970 0.7900 0.7850 0.7770
5.769000 0.7720 0.7700 0.7720 0.7730 0.7800
5.803030 0.7900 0.7990 0.8020 0.8060 0.8110
5.837000 0.8140 0.8140 0.8090 0.8010 0.7970
5.871030 0.7900 0.7820 0.7750 0.7750 0.7780
5.905000 0.7890 0.7940 0.8010 0.8110 0.8120
5.939030 0.8160 0.8160 0.8160 0.8160 0.8160
5.973000 0.8140 0.8060 0.8010 0.7940 0.7890
6.007030 0.7820 0.7770 0.7720 0.7650 0.7530
6.041000 0.7410 0.7210 0.6930 0.6760 0.6700
6.075030 0.6660 0.6490 0.6050 0.4890 0.4600
6.109000 0.4600 0.4720 0.5980 0.6810 0.7410
6.143030 0.7650 0.7720 0.7750 0.7820 0.7820
6.177000 0.7840 0.7840 0.7840 0.7850 0.7850
6.211030 0.7870 0.7890 0.7900 0.7920 0.7940
6.245000 0.7940 0.7990 0.8010 0.8020 0.8140
6.279030 0.8180 0.8190 0.8190 0.8190 0.8190
6.313000 0.8210 0.8210 0.8210 0.8210 0.8230
6.347030 0.8240 0.8240 0.8260 0.8280 0.8280
6.381000 0.8280 0.8210 0.8210 0.8210 0.8230
6.415030 0.8230 0.8240 0.8240 0.8240 0.8240
6.449000 0.8240 0.8240 0.8240 0.8230 0.8230
6.483030 0.8210 0.8160 0.8120 0.8120 0.8140
6.517000 0.8160 0.8160 0.8160 0.8160 0.8190
6.551030 0.8190 0.8160 0.8110 0.8120 0.8120
6.585000 0.8180 0.8190 0.8190 0.8120 0.8110
6.619030 0.8090 0.8090 0.8090 0.8060 0.8060
6.653000 0.8040 0.8020 0.8010 0.7990 0.7950
6.687030 0.7900 0.7820 0.7780 0.7750 0.7750
6.721000 0.7730 0.7680 0.7630 0.7600 0.7530
6.755030 0.7440 0.7340 0.7210 0.7150 0.7000
6.789000 0.6970 0.6970 0.6970 0.7000 0.7000
6.823030 0.6980 0.6880 0.6810 0.6680 0.6540
6.857000 0.6440 0.6370 0.6240 0.6070 0.5830
6.891030 0.5540 0.5200 0.4790 0.4350 0.3840
6.925000 0.3460 0.3060 0.3040 0.3060 0.3400
6.959030 0.3860 0.4350 0.4840 0.5060 0.5250
6.993000 0.5390 0.5510 0.5590 0.5590 0.5570
7.027030 0.5570 0.5570 0.5570 0.5570 0.5560
7.061000 0.5470 0.5300 0.4980 0.4710 0.4430
7.095030 0.4090 0.3790 0.3430 0.3410 0.3430
7.129000 0.3800 0.4330 0.4860 0.5280 0.5640
7.163030 0.5910 0.6130 0.6290 0.6420 0.6510
7.197000 0.6580 0.6660 0.6700 0.6750 0.6780
7.231030 0.6870 0.6970 0.7000 0.7020 0.7050
7.265000 0.7100 0.7190 0.7290 0.7360 0.7360
7.299030 0.7380 0.7380 0.7390 0.7380 0.7360
7.333000 0.7340 0.7320 0.7310 0.7310 0.7310
7.367030 0.7290 0.7260 0.7260 0.7260 0.7260
7.401000 0.7240 0.7220 0.7220 0.7240 0.7260
7.435030 0.7290 0.7320 0.7360 0.7390 0.7390
7.469000 0.7440 0.7480 0.7500 0.7550 0.7630
7.503030 0.7670 0.7670 0.7670 0.7670 0.7650
7.537000 0.7650 0.7650 0.7630 0.7630 0.7610
7.571030 0.7600 0.7580 0.7580 0.7560 0.7580
7.605000 0.7560 0.7580 0.7580 0.7580 0.7560
7.639030 0.7550 0.7550 0.7510 0.7480 0.7430
7.673000 0.7320 0.7260 0.7170 0.7100 0.7000
7.707030 0.6870 0.6750 0.6560 0.6490 0.6490
7.741000 0.6510 0.6630 0.6750 0.6920 0.7050
7.775030 0.7190 0.7240 0.7290 0.7310 0.7310
7.810000 0.7320 0.7340 0.7360 0.7380 0.7380
7.844030 0.7360 0.7340 0.7310 0.7290 0.7270
7.878000 0.7270 0.7290 0.7290 0.7290 0.7290
7.912030 0.7310 0.7320 0.7340 0.7340 0.7340
7.946000 0.7360 0.7380 0.7360 0.7340 0.7320
7.980030 0.7320 0.7310 0.7310 0.7310 0.7310
8.014000 0.7310 0.7320 0.7340 0.7360 0.7380
8.048030 0.7380 0.7390 0.7380 0.7390 0.7390
8.082000 0.7410 0.7410 0.7410 0.7390 0.7390
8.116030 0.7380 0.7390 0.7390 0.7380 0.7340
8.150000 0.7310 0.7240 0.7210 0.7190 0.7150
8.184030 0.7120 0.7040 0.6950 0.6870 0.6800
8.218000 0.6710 0.6610 0.6540 0.6510 0.6460
8.252030 0.6360 0.6270 0.6220 0.6170 0.6130
8.286000 0.6100 0.6080 0.6050 0.6050 0.6030
8.320030 0.6020 0.6000 0.5980 0.5960 0.5910
8.354000 0.5830 0.5690 0.5540 0.5320 0.5060
8.388030 0.4760 0.4350 0.4090 0.3840 0.3770
8.422000 0.3520 0.3500 0.3500 0.3530 0.4350
8.456030 0.4550 0.4600 0.4640 0.4640 0.4620
8.490000 0.4550 0.4470 0.4370 0.4250 0.4130
8.524030 0.3970 0.3820 0.3670 0.3500 0.3310
8.558000 0.3110 0.2900 0.2700 0.2480 0.2260
8.592030 0.2040 0.1800 0.1560 0.1340 0.1130
8.626000 0.0980 0.0850 0.0730 0.0570 0.0470
8.660030 0.0400 0.0340 0.0320 0.0320 0.0320
8.694000 0.0320 0.0320 0.0350 0.0420 0.0570
8.728030 0.0860 0.1130 0.1390 0.1900 0.2390
8.762000 0.2800 0.3160 0.3450 0.3720 0.3970
8.796030 0.4200 0.4420 0.4620 0.4760 0.4880
8.830000 0.4960 0.5060 0.5130 0.5200 0.5270
8.864030 0.5320 0.5350 0.5400 0.5440 0.5490
8.898000 0.5510 0.5540 0.5540 0.5540 0.5520
8.932030 0.5540 0.5540 0.5540 0.5560 0.5560
8.966000 0.5570 0.5590 0.5610 0.5680 0.5690
9.000030 0.5740 0.5780 0.5790 0.5810 0.5850
9.034000 0.5860 0.5880 0.5880 0.5880 0.5880
9.068030 0.5860 0.5790 0.5780 0.5760 0.5760
9.102000 0.5710 0.5680 0.5660 0.5610 0.5560
9.136030 0.5520 0.5510 0.5490 0.5450 0.5440
9.170000 0.5440 0.5440 0.5440 0.5440 0.5440
9.204030 0.5450 0.5490 0.5510 0.5510 0.5560
9.238000 0.5570 0.5590 0.5610 0.5610 0.5610
9.272030 0.5620 0.5620 0.5620 0.5620 0.5620
9.306000 0.5590 0.5560 0.5560 0.5570 0.5610
9.340030 0.5620 0.5620 0.5640 0.5640 0.5640
9.374000 0.5660 0.5660 0.5660 0.5660 0.5640
9.408030 0.5640 0.5640 0.5640 0.5620 0.5610
9.442000 0.5540 0.5510 0.5470 0.5400 0.5340
9.476030 0.5250 0.5180 0.5130 0.5130 0.5100
9.510000 0.5100 0.5080 0.5060 0.5050 0.5050
9.544030 0.5170 0.5270 0.5370 0.5520 0.5660
9.578000 0.5740 0.5910 0.6020 0.6100 0.6150
9.612030 0.6220 0.6250 0.6300 0.6360 0.6390
9.646000 0.6440 0.6470 0.6490 0.6490 0.6510
9.680030 0.6530 0.6530 0.6560 0.6560 0.6560
9.714000 0.6560 0.6560 0.6540 0.6540 0.6530
9.748030 0.6510 0.6510 0.6490 0.6490 0.6470
9.782000 0.6440 0.6420 0.6390 0.6360 0.6320
9.816030 0.6270 0.6220 0.6200 0.6200 0.6200
9.850000 0.6190 0.6170 0.6130 0.6120 0.6120
9.884030 0.6100 0.6080 0.6020 0.6020 0.6000
9.918000 0.5980 0.5980 0.5960 0.5910 0.5880
9.952030 0.5790 0.5690 0.5590 0.5560 0.5520
9.986000 0.5490 0.5470 0.5440 0.5110 0.4960
10.020030 0.4860 0.4760 0.4640 0.4470 0.4260
10.054000 0.4060 0.3940 0.3750 0.3520 0.3260
10.088030 0.3010 0.2800 0.2500 0.2270 0.2020
10.122000 0.1850 0.1640 0.1370 0.1240 0.1120
10.156030 0.1030 0.0980 0.0960 0.0980 0.1030
10.190000 0.1120 0.1220 0.1390 0.1540 0.2070
10.224030 0.2360 0.2670 0.2920 0.3180 0.3400
10.259000 0.3620 0.3800 0.3970 0.4130 0.4260
10.293030 0.4420 0.4540 0.4650 0.4770 0.4890
10.327000 0.4980 0.5050 0.5100 0.5130 0.5200
10.361030 0.5280 0.5320 0.5370 0.5420 0.5490
10.395000 0.5540 0.5590 0.5620 0.5620 0.5620
10.429030 0.5640 0.5660 0.5680 0.5690 0.5680
10.463000 0.5680 0.5680 0.5660 0.5640 0.5620
10.497030 0.5610 0.5610 0.5570 0.5560 0.5520
10.531000 0.5520 0.5510 0.5490 0.5420 0.5370
10.565030 0.5300 0.5230 0.5150 0.5100 0.5050
10.599000 0.4980 0.4910 0.4840 0.4740 0.4620
10.633030 0.4520 0.4380 0.4250 0.4110 0.3960
10.667000 0.3770 0.3580 0.3360 0.3110 0.2970
10.701030 0.2730 0.2560 0.2430 0.2270 0.2120
10.735000 0.1950 0.1780 0.1590 0.1440 0.1250
10.769030 0.1130 0.1020 0.0980 0.0880 0.0780
10.803000 0.0680 0.0610 0.0540 0.0490 0.0440
10.837030 0.0420 0.0390 0.0370 0.0340 0.0320
10.871000 0.0300 0.0300 0.0300 0.0300 0.0300
10.905030 0.0320 0.0320 0.0320 0.0320 0.0320
10.939000 0.0320 0.0320 0.0350 0.0440 0.0540
10.973030 0.0610 0.0730 0.0810 0.1000 0.1200
11.007000 0.1410 0.1610 0.1830 0.2050 0.2270
11.041030 0.2500 0.2720 0.2940 0.3160 0.3380
11.075000 0.3600 0.3800 0.4030 0.4230 0.4420
11.109030 0.4600 0.4790 0.4940 0.5100 0.5250
11.143000 0.5340 0.5490 0.5560 0.5680 0.5780
11.177030 0.5860 0.5950 0.6020 0.6080 0.6150
11.211000 0.6220 0.6270 0.6340 0.6410 0.6460
11.245030 0.6510 0.6560 0.6610 0.6640 0.6700
11.279000 0.6730 0.6780 0.6800 0.6830 0.6850
11.313030 0.6880 0.6920 0.6970 0.7000 0.7000
11.347000 0.7020 0.7020 0.7050 0.7050 0.7100
11.381030 0.7140 0.7150 0.7170 0.7170 0.7190
11.415000 0.7190 0.7210 0.7220 0.7220 0.7240
11.449030 0.7260 0.7270 0.7290 0.7290 0.7310
11.483000 0.7310 0.7310 0.7310 0.7320 0.7320
11.517030 0.7320 0.7340 0.7380 0.7390 0.7390
11.551000 0.7390 0.7390 0.7380 0.7390 0.7390
11.585030 0.7390 0.7390 0.7410 0.7410 0.7430
11.619000 0.7440 0.7460 0.7480 0.7480 0.7480
11.653030 0.7500 0.7500 0.7510 0.7510 0.7510
11.687000 0.7530 0.7510 0.7510 0.7530 0.7530
11.721030 0.7550 0.7530 0.7530 0.7510 0.7500
11.755000 0.7500 0.7480 0.7500 0.7510 0.7530
11.789030 0.7530 0.7510 0.7500 0.7500 0.7500
11.823000 0.7500 0.7500 0.7480 0.7480 0.7480
11.857030 0.7480 0.7460 0.7410 0.7390 0.7380
11.891000 0.7380 0.7360 0.7340 0.7320 0.7310
11.925030 0.7290 0.7290 0.7270 0.7270 0.7270
11.959000 0.7240 0.7210 0.7190 0.7140 0.7120
11.993030 0.7070 0.7020 0.6970 0.6920 0.6850
12.027000 0.6780 0.6710 0.6640 0.6560 0.6470
12.061030 0.6360 0.6250 0.6120 0.5980 0.5830
12.095000 0.5660 0.5450 0.5280 0.5030 0.4860
12.129030 0.4760 0.4690 0.4550 0.4470 0.4430
12.163000 0.4470 0.4550 0.4650 0.4760 0.4910
12.197030 0.5060 0.5280 0.5520 0.5640 0.5780
12.231000 0.5950 0.6030 0.6120 0.6190 0.6290
12.265030 0.6440 0.6560 0.6630 0.6700 0.6710
12.299000 0.6750 0.6810 0.6870 0.6900 0.6920
12.333030 0.6930 0.6950 0.6980 0.7020 0.7050
12.367000 0.7070 0.7090 0.7090 0.7100 0.7140
12.401030 0.7150 0.7170 0.7190 0.7190 0.7210
12.435000 0.7220 0.7240 0.7270 0.7270 0.7290
12.469030 0.7270 0.7270 0.7260 0.7240 0.7260
12.503000 0.7270 0.7310 0.7310 0.7320 0.7320
12.537030 0.7340 0.7340 0.7320 0.7320 0.7320
12.571000 0.7320 0.7320 0.7320 0.7320 0.7360
12.605030 0.7360 0.7380 0.7380 0.7390 0.7390
12.639000 0.7390 0.7410 0.7410 0.7410 0.7410
12.673030 0.7410 0.7410 0.7410 0.7430 0.7430
12.707000 0.7430 0.7430 0.7440 0.7440 0.7500
12.741030 0.7500 0.7480 0.7500 0.7500 0.7510
12.776000 0.7510 0.7510 0.7510 0.7530 0.7530
12.810030 0.7530 0.7530 0.7550 0.7550 0.7550
12.844000 0.7530 0.7530 0.7530 0.7530 0.7550
12.878030 0.7550 0.7550 0.7550 0.7550 0.7560
12.912000 0.7560 0.7560 0.7560 0.7580 0.7580
12.946030 0.7600 0.7600 0.7600 0.7610 0.7610
12.980000 0.7610 0.7630 0.7630 0.7610 0.7610
13.014030 0.7610 0.7630 0.7630 0.7630 0.7630
13.048000 0.7630 0.7630 0.7630 0.7630 0.7630
13.082030 0.7630 0.7630 0.7650 0.7650 0.7650
13.116000 0.7650 0.7650 0.7650 0.7650 0.7670
13.150030 0.7650 0.7650 0.7650 0.7650 0.7650
13.184000 0.7650 0.7650 0.7650 0.7630 0.7630
13.218030 0.7630 0.7650 0.7630 0.7630 0.7630
13.252000 0.7650 0.7650 0.7650 0.7650 0.7650
13.286030 0.7650 0.7650 0.7650 0.7650 0.7650
13.320000 0.7650 0.7650 0.7650 0.7650 0.7650
13.354030 0.7650 0.7650 0.7650 0.7650 0.7650
13.388000 0.7650 0.7630 0.7630 0.7630 0.7630
13.422030 0.7630 0.7630 0.7610 0.7610 0.7610
13.456000 0.7610 0.7630 0.7630 0.7650 0.7650
13.490030 0.7630 0.7630 0.7630 0.7610 0.7630
13.524000 0.7630 0.7630 0.7650 0.7650 0.7650
13.558030 0.7650 0.7650 0.7650 0.7650 0.7650
13.592000 0.7650 0.7650 0.7650 0.7630 0.7610
13.626030 0.7610 0.7610 0.7610 0.7610 0.7600
13.660000 0.7600 0.7600 0.7600 0.7600 0.7600
13.694030 0.7600 0.7610 0.7600 0.7600 0.7580
13.728000 0.7580 0.7560 0.7560 0.7560 0.7550
13.762030 0.7530 0.7530 0.7530 0.7510 0.7510
13.796000 0.7500 0.7510 0.7510 0.7510 0.7510
13.830030 0.7510 0.7500 0.7500 0.7500 0.7480
13.864000 0.7480 0.7480 0.7460 0.7460 0.7460
13.898030 0.7410 0.7390 0.7390 0.7390 0.7390
13.932000 0.7380 0.7390 0.7390 0.7380 0.7360
13.966030 0.7360 0.7360 0.7340 0.7320 0.7320
14.000000 0.7320 0.7310 0.7310 0.7290 0.7290
14.034030 0.7290 0.7270 0.7260 0.7220 0.7210
14.068000 0.7190 0.7190 0.7190 0.7190 0.7190
14.102030 0.7190 0.7190 0.7190 0.7170 0.7170
14.136000 0.7150 0.7140 0.7120 0.7100 0.7090
14.170030 0.7070 0.7070 0.7050 0.7050 0.7020
14.204000 0.7020 0.7000 0.7020 0.7000 0.7000
14.238030 0.7000 0.6980 0.6980 0.6970 0.6970
14.272000 0.6950 0.6930 0.6930 0.6920 0.6880
14.306030 0.6830 0.6830 0.6810 0.6810 0.6800
14.340000 0.6800 0.6800 0.6780 0.6750 0.6730
14.374030 0.6730 0.6730 0.6710 0.6710 0.6710
14.408000 0.6700 0.6700 0.6660 0.6640 0.6610
14.442030 0.6590 0.6580 0.6580 0.6560 0.6560
14.476000 0.6540 0.6510 0.6510 0.6510 0.6490
14.510030 0.6490 0.6440 0.6420 0.6410 0.6410
14.544000 0.6370 0.6320 0.6300 0.6240 0.6220
14.578030 0.6220 0.6200 0.6150 0.6100 0.6050
14.612000 0.6020 0.5960 0.5900 0.5860 0.5850
14.646030 0.5810 0.5780 0.5710 0.5680 0.5570
14.680000 0.5520 0.5490 0.5470 0.5420 0.5350
14.714030 0.5270 0.5170 0.5100 0.5080 0.5010
14.748000 0.4960 0.4880 0.4760 0.4690 0.4620
14.782030 0.4550 0.4500 0.4380 0.4310 0.4250
14.816000 0.4200 0.4090 0.3960 0.3870 0.3790
14.850030 0.3650 0.3580 0.3520 0.3430 0.3360
14.884000 0.3290 0.3230 0.3160 0.3110 0.3070
14.918030 0.3020 0.2950 0.2890 0.2840 0.2820
14.952000 0.2800 0.2780 0.2770 0.2770 0.2770
14.986030 0.2800 0.2840 0.2890 0.2950 0.3020
15.020000 0.3090 0.3180 0.3240 0.3310 0.3380
15.054030 0.3460 0.3500 0.3530 0.3550 0.3550
15.088000 0.3570 0.3550 0.3520 0.3480 0.3480
15.122030 0.3430 0.3410 0.3380 0.3310 0.3310
15.156000 0.3290 0.3290 0.3310 0.3360 0.3410
15.190030 0.3480 0.3570 0.3670 0.3770 0.3860
15.224000 0.3960 0.4040 0.4090 0.4140 0.4210
15.258030 0.4310 0.4430 0.4480 0.4550 0.4670
15.293000 0.4740 0.4770 0.4910 0.4980 0.5050
15.327030 0.5150 0.5220 0.5280 0.5320 0.5390
15.361000 0.5450 0.5510 0.5560 0.5660 0.5730
15.395030 0.5790 0.5850 0.5880 0.5910 0.5950
15.429000 0.5980 0.6050 0.6100 0.6130 0.6150
15.463030 0.6190 0.6220 0.6250 0.6300 0.6340
15.497000 0.6370 0.6410 0.6420 0.6440 0.6440
15.531030 0.6510 0.6510 0.6510 0.6540 0.6540
15.565000 0.6560 0.6580 0.6580 0.6590 0.6640
15.599030 0.6680 0.6710 0.6730 0.6750 0.6750
15.633000 0.6760 0.6760 0.6780 0.6800 0.6800
15.667030 0.6800 0.6810 0.6800 0.6810 0.6810
15.701000 0.6830 0.6830 0.6830 0.6830 0.6830
15.735030 0.6850 0.6880 0.6900 0.6900 0.6920
15.769000 0.6920 0.6920 0.6920 0.6930 0.6930
15.803030 0.6920 0.6900 0.6900 0.6880 0.6880
15.837000 0.6900 0.6900 0.6930 0.6920 0.6930
15.871030 0.6930 0.6950 0.6950 0.6950 0.6950
15.905000 0.6950 0.6950 0.6950 0.6950 0.6950
15.939030 0.6950 0.6950 0.6950 0.6950 0.6950
##END=
