##TITLE=1,2-PROPANEDIOL, 2-METHYL-
##JCAMP-DX=4.24
##DATA TYPE=INFRARED SPECTRUM
##CLASS=COBLENTZ III
##ORIGIN=DOW CHEMICAL COMPANY
##OWNER=COBLENTZ SOCIETY
Collection (C) 2018 copyright by the U.S. Secretary of Commerce
on behalf of the United States of America. All rights reserved.
##DATE=1963/12/11
##NAMES=2-methyl-1,2-propanediol
ISOBUTYLENE GLYCOL
##CAS REGISTRY NO=558-43-0
##MOLFORM=C4 H10 O2
##SOURCE REFERENCE=COBLENTZ NO. 10153
##$NIST SOURCE=COBLENTZ
##$NIST IMAGE=cob10153
##SPECTROMETER/DATA SYSTEM=DOW KBr FOREPRISM-GRATING
##INSTRUMENT PARAMETERS=BLAZED AT 3.5, 12.0, 20.0 MICRON, CHANGED AT 5.0, 7.5, 14.9 MICRON
##STATE=LIQUID (NEAT)
##PATH LENGTH=CAPILLARY
$$SPECTRAL CONTAMINATION DUE TO H2O AROUND 1655 CM^-^1
##SAMPLING PROCEDURE=TRANSMISSION
##RESOLUTION=4
##DATA PROCESSING=DIGITIZED BY NIST FROM HARD COPY (FROM TWO SEGMENTS)
##XUNITS=1/CM
##YUNITS=TRANSMITTANCE
##XFACTOR=1.000000
##YFACTOR=1
##DELTAX=0.870070
##FIRSTX=390.371
##LASTX=3800.17
##FIRSTY=0.798
##MAXX=3800.17
##MINX=390.371
##MAXY=1.032
##MINY=0.047
##NPOINTS=3920
##XYDATA=(X++(Y..Y))
390.371000 0.7980 0.7980 0.7970 0.7970 0.7950
394.721349 0.7950 0.7940 0.7940 0.7930 0.7900
399.071697 0.7870 0.7850 0.7830 0.7820 0.7800
403.422046 0.7800 0.7790 0.7790 0.7780 0.7760
407.772395 0.7750 0.7740 0.7720 0.7700 0.7700
412.122743 0.7680 0.7680 0.7670 0.7670 0.7650
416.473092 0.7650 0.7640 0.7640 0.7630 0.7630
420.823441 0.7610 0.7610 0.7610 0.7610 0.7610
425.173789 0.7600 0.7590 0.7590 0.7570 0.7550
429.524138 0.7530 0.7510 0.7490 0.7480 0.7450
433.874486 0.7440 0.7420 0.7410 0.7400 0.7380
438.224835 0.7370 0.7360 0.7310 0.7290 0.7260
442.575184 0.7260 0.7250 0.7230 0.7220 0.7210
446.925532 0.7190 0.7180 0.7150 0.7110 0.7080
451.275881 0.7070 0.7040 0.7020 0.6990 0.6950
455.626230 0.6920 0.6890 0.6870 0.6840 0.6820
459.976578 0.6780 0.6770 0.6760 0.6760 0.6760
464.326927 0.6760 0.6770 0.6770 0.6780 0.6800
468.677276 0.6810 0.6820 0.6840 0.6850 0.6870
473.027624 0.6880 0.6890 0.6910 0.6920 0.6930
477.377973 0.6950 0.6960 0.6970 0.7000 0.7020
481.728322 0.7030 0.7040 0.7040 0.7060 0.7060
486.078670 0.7070 0.7070 0.7060 0.7060 0.7040
490.429019 0.7030 0.7020 0.7000 0.7000 0.6990
494.779368 0.6990 0.6970 0.6970 0.6960 0.6950
499.129716 0.6950 0.6930 0.6920 0.6890 0.6880
503.480065 0.6850 0.6840 0.6820 0.6800 0.6800
507.830414 0.6780 0.6770 0.6740 0.6730 0.6700
512.180762 0.6690 0.6680 0.6650 0.6630 0.6620
516.531111 0.6610 0.6610 0.6590 0.6570 0.6530
520.881459 0.6480 0.6460 0.6460 0.6390 0.6380
525.231808 0.6350 0.6320 0.6320 0.6290 0.6290
529.582157 0.6280 0.6280 0.6280 0.6290 0.6310
533.932505 0.6320 0.6340 0.6350 0.6360 0.6360
538.282854 0.6360 0.6380 0.6380 0.6360 0.6350
542.633203 0.6350 0.6340 0.6340 0.6320 0.6320
546.983551 0.6310 0.6310 0.6290 0.6280 0.6240
551.333900 0.6210 0.6190 0.6170 0.6140 0.6090
555.684249 0.6050 0.6000 0.5950 0.5910 0.5850
560.034597 0.5790 0.5710 0.5600 0.5560 0.5371
564.384946 0.5290 0.5230 0.5170 0.5140 0.5120
568.735295 0.5120 0.5150 0.5190 0.5250 0.5300
573.085643 0.5370 0.5380 0.5480 0.5490 0.5550
577.435992 0.5590 0.5610 0.5640 0.5700 0.5710
581.786341 0.5710 0.5740 0.5750 0.5760 0.5780
586.136689 0.5780 0.5780 0.5780 0.5780 0.5780
590.487038 0.5780 0.5760 0.5760 0.5760 0.5760
594.837386 0.5760 0.5760 0.5760 0.5760 0.5750
599.187735 0.5750 0.5750 0.5750 0.5750 0.5750
603.538084 0.5750 0.5750 0.5750 0.5750 0.5750
607.888432 0.5750 0.5740 0.5740 0.5740 0.5740
612.238781 0.5740 0.5740 0.5740 0.5740 0.5740
616.589130 0.5720 0.5720 0.5720 0.5720 0.5710
620.939478 0.5710 0.5710 0.5710 0.5710 0.5710
625.289827 0.5710 0.5700 0.5700 0.5700 0.5700
629.640176 0.5700 0.5700 0.5700 0.5700 0.5700
633.990524 0.5700 0.5710 0.5710 0.5710 0.5710
638.340873 0.5710 0.5710 0.5710 0.5710 0.5710
642.691222 0.5710 0.5720 0.5720 0.5720 0.5720
647.041570 0.5720 0.5740 0.5740 0.5740 0.5740
651.391919 0.5740 0.5740 0.5750 0.5750 0.5760
655.742268 0.5760 0.5780 0.5780 0.5780 0.5790
660.092616 0.5790 0.5800 0.5800 0.5830 0.5850
664.442965 0.5860 0.5870 0.5890 0.5890 0.5900
668.793314 0.5910 0.5930 0.5940 0.5950 0.5970
673.143662 0.5980 0.6000 0.6000 0.6010 0.6020
677.494011 0.6020 0.6040 0.6050 0.6050 0.6080
681.844359 0.6090 0.6090 0.6100 0.6120 0.6130
686.194708 0.6140 0.6160 0.6160 0.6170 0.6170
690.545057 0.6200 0.6210 0.6210 0.6230 0.6240
694.895405 0.6250 0.6290 0.6290 0.6310 0.6310
699.245754 0.6320 0.6320 0.6340 0.6350 0.6380
703.596103 0.6380 0.6390 0.6420 0.6430 0.6430
707.946451 0.6440 0.6460 0.6470 0.6480 0.6500
712.296800 0.6510 0.6530 0.6540 0.6570 0.6580
716.647149 0.6590 0.6590 0.6610 0.6620 0.6630
720.997497 0.6660 0.6690 0.6690 0.6720 0.6740
725.347846 0.6760 0.6760 0.6770 0.6780 0.6780
729.698195 0.6810 0.6850 0.6870 0.6870 0.6870
734.048543 0.6910 0.6910 0.6920 0.6920 0.6930
738.398892 0.6950 0.6960 0.6970 0.7000 0.7000
742.749241 0.7020 0.7020 0.7000 0.7000 0.6990
747.099589 0.6970 0.6970 0.6950 0.6930 0.6880
751.449938 0.6810 0.6760 0.6660 0.6590 0.6381
755.800286 0.6230 0.6100 0.6000 0.5900 0.5760
760.150635 0.5590 0.5361 0.5141 0.4911 0.4621
764.500984 0.4320 0.4280 0.4280 0.4310 0.4440
768.851332 0.4580 0.4949 0.5229 0.5489 0.5709
773.201681 0.5950 0.6240 0.6500 0.6680 0.6810
777.552030 0.6920 0.7040 0.7110 0.7170 0.7250
781.902378 0.7290 0.7300 0.7380 0.7410 0.7450
786.252727 0.7490 0.7530 0.7560 0.7590 0.7610
790.603076 0.7640 0.7670 0.7700 0.7720 0.7750
794.953424 0.7760 0.7790 0.7800 0.7830 0.7860
799.303773 0.7870 0.7900 0.7930 0.7950 0.7970
803.654122 0.7970 0.8010 0.8020 0.8050 0.8080
808.004470 0.8100 0.8120 0.8160 0.8170 0.8210
812.354819 0.8230 0.8240 0.8250 0.8280 0.8310
816.705168 0.8310 0.8320 0.8320 0.8340 0.8350
821.055516 0.8380 0.8380 0.8390 0.8400 0.8420
825.405865 0.8420 0.8430 0.8440 0.8440 0.8440
829.756214 0.8430 0.8420 0.8420 0.8420 0.8400
834.106562 0.8400 0.8400 0.8400 0.8420 0.8420
838.456911 0.8430 0.8460 0.8500 0.8530 0.8540
842.807259 0.8570 0.8590 0.8620 0.8630 0.8660
847.157608 0.8690 0.8720 0.8720 0.8730 0.8740
851.507957 0.8760 0.8760 0.8770 0.8780 0.8800
855.858305 0.8810 0.8810 0.8810 0.8820 0.8820
860.208654 0.8840 0.8840 0.8850 0.8850 0.8850
864.559003 0.8850 0.8870 0.8870 0.8850 0.8850
868.909351 0.8850 0.8840 0.8820 0.8810 0.8800
873.259700 0.8780 0.8760 0.8740 0.8720 0.8700
877.610049 0.8650 0.8590 0.8540 0.8440 0.8310
881.960397 0.8270 0.8130 0.7981 0.7910 0.7761
886.310746 0.7610 0.7460 0.7440 0.7360 0.7230
890.661095 0.7031 0.7000 0.6960 0.6890 0.6820
895.011443 0.6730 0.6620 0.6480 0.6290 0.6041
899.361792 0.5721 0.5341 0.4972 0.4443 0.4142
903.712141 0.3970 0.3790 0.3221 0.3060 0.3020
908.062489 0.2950 0.2920 0.2890 0.2910 0.3069
912.412838 0.3180 0.3380 0.3590 0.4039 0.4289
916.763186 0.4569 0.4879 0.5229 0.5598 0.6018
921.113535 0.6500 0.7029 0.7110 0.7150 0.7150
925.463884 0.7140 0.7120 0.7100 0.7070 0.7060
929.814232 0.7060 0.7060 0.7070 0.7080 0.7120
934.164581 0.7290 0.7509 0.7640 0.7760 0.7860
938.514930 0.7940 0.8060 0.8140 0.8210 0.8250
942.865278 0.8290 0.8340 0.8390 0.8440 0.8500
947.215627 0.8530 0.8540 0.8580 0.8620 0.8630
951.565976 0.8650 0.8660 0.8660 0.8660 0.8650
955.916324 0.8650 0.8630 0.8630 0.8610 0.8570
960.266673 0.8540 0.8480 0.8460 0.8400 0.8320
964.617022 0.8240 0.8140 0.8060 0.7950 0.7860
968.967370 0.7591 0.7271 0.7031 0.6871 0.6701
973.317719 0.6360 0.6020 0.5720 0.5461 0.5221
977.668068 0.5140 0.5140 0.5170 0.5230 0.5419
982.018416 0.5630 0.5830 0.6040 0.6160 0.6280
986.368765 0.6350 0.6470 0.6550 0.6759 0.6879
990.719114 0.7380 0.7530 0.7570 0.7640 0.7740
995.069462 0.7750 0.7780 0.7780 0.7760 0.7720
999.419811 0.7670 0.7550 0.7480 0.7380 0.7230
1003.770159 0.7070 0.7000 0.6930 0.6781 0.6651
1008.120508 0.6540 0.6500 0.6430 0.6420 0.6420
1012.470857 0.6430 0.6460 0.6510 0.6590 0.6630
1016.821205 0.6700 0.6740 0.6760 0.6760 0.6760
1021.171554 0.6740 0.6630 0.6610 0.6530 0.6440
1025.521903 0.6290 0.6130 0.5940 0.5750 0.5560
1029.872251 0.5311 0.5061 0.4771 0.4471 0.4191
1034.222600 0.4060 0.3930 0.3700 0.3510 0.3211
1038.572949 0.2961 0.2771 0.2571 0.2361 0.2091
1042.923297 0.1910 0.1750 0.1610 0.1490 0.1370
1047.273646 0.1270 0.1190 0.1120 0.1070 0.1030
1051.623995 0.0990 0.0990 0.0970 0.0970 0.0990
1055.974343 0.1000 0.1020 0.1030 0.1060 0.1080
1060.324692 0.1120 0.1180 0.1250 0.1360 0.1450
1064.675041 0.1550 0.1670 0.1819 0.1979 0.2199
1069.025389 0.2460 0.2760 0.3079 0.3509 0.4228
1073.375738 0.4419 0.4739 0.4969 0.5119 0.5408
1077.726086 0.5750 0.5910 0.6270 0.6540 0.6740
1082.076435 0.7019 0.7110 0.7170 0.7230 0.7290
1086.426784 0.7380 0.7440 0.7460 0.7570 0.7600
1090.777132 0.7670 0.7680 0.7710 0.7750 0.7780
1095.127481 0.7790 0.7820 0.7830 0.7860 0.7870
1099.477830 0.7890 0.7900 0.7900 0.7890 0.7870
1103.828178 0.7860 0.7850 0.7830 0.7800 0.7780
1108.178527 0.7760 0.7750 0.7670 0.7610 0.7600
1112.528876 0.7570 0.7520 0.7460 0.7410 0.7360
1116.879224 0.7310 0.7270 0.7210 0.7150 0.7070
1121.229573 0.7020 0.6960 0.6910 0.6810 0.6740
1125.579922 0.6630 0.6530 0.6440 0.6340 0.6201
1129.930270 0.6040 0.5890 0.5680 0.5600 0.5490
1134.280619 0.5360 0.5191 0.5080 0.5000 0.4891
1138.630968 0.4740 0.4570 0.4420 0.4250 0.4160
1142.981316 0.4060 0.3980 0.3900 0.3790 0.3710
1147.331665 0.3600 0.3550 0.3490 0.3400 0.3300
1151.682014 0.3220 0.3140 0.3080 0.3020 0.2950
1156.032362 0.2880 0.2820 0.2780 0.2720 0.2680
1160.382711 0.2630 0.2620 0.2590 0.2580 0.2570
1164.733059 0.2570 0.2570 0.2580 0.2590 0.2610
1169.083408 0.2620 0.2650 0.2720 0.2820 0.2850
1173.433757 0.2970 0.3060 0.3140 0.3220 0.3330
1177.784105 0.3450 0.3590 0.4008 0.4289 0.4469
1182.134454 0.4620 0.4770 0.4910 0.5040 0.5150
1186.484803 0.5329 0.5479 0.5590 0.5779 0.5939
1190.835151 0.6100 0.6240 0.6280 0.6320 0.6380
1195.185500 0.6440 0.6460 0.6480 0.6480 0.6510
1199.535849 0.6540 0.6570 0.6570 0.6580 0.6580
1203.886197 0.6580 0.6580 0.6580 0.6580 0.6550
1208.236546 0.6550 0.6540 0.6530 0.6510 0.6500
1212.586895 0.6480 0.6460 0.6440 0.6400 0.6380
1216.937243 0.6320 0.6270 0.6210 0.6160 0.6050
1221.287592 0.5980 0.5900 0.5820 0.5750 0.5640
1225.637941 0.5600 0.5510 0.5440 0.5380 0.5330
1229.988289 0.5260 0.5230 0.5190 0.5180 0.5170
1234.338638 0.5170 0.5170 0.5170 0.5170 0.5180
1238.688986 0.5180 0.5230 0.5230 0.5310 0.5340
1243.039335 0.5370 0.5420 0.5480 0.5520 0.5600
1247.389684 0.5630 0.5640 0.5680 0.5740 0.5750
1251.740032 0.5760 0.5760 0.5760 0.5780 0.5780
1256.090381 0.5790 0.5790 0.5790 0.5800 0.5800
1260.440730 0.5820 0.5820 0.5820 0.5830 0.5830
1264.791078 0.5870 0.5870 0.5870 0.5890 0.5900
1269.141427 0.5940 0.5970 0.6010 0.6050 0.6080
1273.491776 0.6120 0.6160 0.6190 0.6240 0.6290
1277.842124 0.6320 0.6400 0.6440 0.6530 0.6630
1282.192473 0.6680 0.6770 0.6820 0.6910 0.7059
1286.542822 0.7080 0.7140 0.7170 0.7230 0.7260
1290.893170 0.7310 0.7310 0.7330 0.7360 0.7360
1295.243519 0.7360 0.7360 0.7360 0.7340 0.7340
1299.593868 0.7330 0.7310 0.7310 0.7300 0.7290
1303.944216 0.7260 0.7260 0.7250 0.7230 0.7220
1308.294565 0.7190 0.7170 0.7140 0.7110 0.7100
1312.644914 0.7070 0.7060 0.7000 0.6990 0.6960
1316.995262 0.6920 0.6910 0.6890 0.6840 0.6800
1321.345611 0.6770 0.6740 0.6740 0.6720 0.6720
1325.695959 0.6700 0.6700 0.6690 0.6690 0.6680
1330.046308 0.6660 0.6660 0.6650 0.6650 0.6630
1334.396657 0.6620 0.6620 0.6610 0.6590 0.6580
1338.747005 0.6550 0.6530 0.6480 0.6460 0.6430
1343.097354 0.6390 0.6350 0.6310 0.6280 0.6200
1347.447703 0.6160 0.6140 0.6050 0.5950 0.5870
1351.798051 0.5760 0.5680 0.5600 0.5481 0.5371
1356.148400 0.5250 0.5140 0.4990 0.4800 0.4551
1360.498749 0.4311 0.4061 0.3980 0.3900 0.3801
1364.849097 0.3720 0.3710 0.3720 0.3790 0.3850
1369.199446 0.4059 0.4100 0.4100 0.4080 0.4060
1373.549795 0.4000 0.3970 0.3930 0.3830 0.3720
1377.900143 0.3640 0.3570 0.3510 0.3450 0.3440
1382.250492 0.3420 0.3420 0.3440 0.3450 0.3480
1386.600841 0.3530 0.3560 0.3610 0.3670 0.3720
1390.951189 0.3790 0.3900 0.4080 0.4210 0.4310
1395.301538 0.4400 0.4500 0.4570 0.4610 0.4650
1399.651886 0.4700 0.4770 0.4810 0.4850 0.4870
1404.002235 0.4880 0.4890 0.4920 0.4950 0.4990
1408.352584 0.5000 0.5020 0.5040 0.5080 0.5110
1412.702932 0.5120 0.5150 0.5180 0.5230 0.5250
1417.053281 0.5290 0.5330 0.5340 0.5400 0.5480
1421.403630 0.5560 0.5600 0.5610 0.5640 0.5740
1425.753978 0.5750 0.5790 0.5870 0.5890 0.5910
1430.104327 0.5970 0.6010 0.6050 0.6080 0.6100
1434.454676 0.6140 0.6140 0.6160 0.6170 0.6170
1438.805024 0.6170 0.6160 0.6160 0.6160 0.6140
1443.155373 0.6140 0.6140 0.6140 0.6140 0.6130
1447.505722 0.6120 0.6100 0.6080 0.6050 0.6000
1451.856070 0.5930 0.5900 0.5870 0.5800 0.5740
1456.206419 0.5630 0.5550 0.5490 0.5420 0.5340
1460.556768 0.5270 0.5250 0.5250 0.5230 0.5230
1464.907116 0.5220 0.5220 0.5190 0.5170 0.5140
1469.257465 0.5100 0.5040 0.5000 0.4970 0.4960
1473.607814 0.4960 0.4970 0.5000 0.5060 0.5120
1477.958162 0.5220 0.5300 0.5440 0.5680 0.5979
1482.308511 0.6199 0.6379 0.6649 0.6799 0.7099
1486.658859 0.7230 0.7380 0.7440 0.7600 0.7700
1491.009208 0.7830 0.7910 0.7940 0.8010 0.8119
1495.359557 0.8140 0.8200 0.8250 0.8290 0.8350
1499.709905 0.8390 0.8460 0.8500 0.8510 0.8530
1504.060254 0.8540 0.8580 0.8590 0.8620 0.8630
1508.410603 0.8660 0.8690 0.8700 0.8730 0.8740
1512.760951 0.8760 0.8770 0.8800 0.8810 0.8820
1517.111300 0.8840 0.8850 0.8890 0.8890 0.8910
1521.461649 0.8910 0.8920 0.8920 0.8930 0.8960
1525.811997 0.8970 0.8990 0.8990 0.9000 0.9000
1530.162346 0.9020 0.9030 0.9030 0.9040 0.9040
1534.512695 0.9060 0.9060 0.9070 0.9070 0.9080
1538.863043 0.9080 0.9100 0.9110 0.9110 0.9110
1543.213392 0.9120 0.9140 0.9140 0.9140 0.9150
1547.563741 0.9150 0.9170 0.9170 0.9180 0.9180
1551.914089 0.9190 0.9190 0.9190 0.9190 0.9190
1556.264438 0.9190 0.9210 0.9210 0.9220 0.9220
1560.614786 0.9220 0.9220 0.9220 0.9220 0.9230
1564.965135 0.9230 0.9230 0.9230 0.9230 0.9230
1569.315484 0.9220 0.9220 0.9220 0.9220 0.9220
1573.665832 0.9220 0.9220 0.9220 0.9210 0.9210
1578.016181 0.9210 0.9210 0.9210 0.9220 0.9210
1582.366530 0.9210 0.9210 0.9210 0.9190 0.9190
1586.716878 0.9190 0.9180 0.9180 0.9170 0.9150
1591.067227 0.9150 0.9150 0.9140 0.9140 0.9140
1595.417576 0.9120 0.9110 0.9110 0.9110 0.9110
1599.767924 0.9100 0.9100 0.9100 0.9100 0.9070
1604.118273 0.9060 0.9040 0.9030 0.9020 0.9000
1608.468622 0.8990 0.8970 0.8960 0.8950 0.8930
1612.818970 0.8920 0.8910 0.8910 0.8870 0.8840
1617.169319 0.8840 0.8820 0.8810 0.8780 0.8770
1621.519668 0.8740 0.8730 0.8720 0.8700 0.8690
1625.870016 0.8680 0.8660 0.8630 0.8630 0.8590
1630.220365 0.8580 0.8540 0.8540 0.8530 0.8510
1634.570714 0.8470 0.8460 0.8440 0.8440 0.8430
1638.921062 0.8420 0.8390 0.8380 0.8360 0.8350
1643.271411 0.8340 0.8340 0.8340 0.8320 0.8310
1647.621759 0.8310 0.8290 0.8290 0.8280 0.8270
1651.972108 0.8270 0.8270 0.8270 0.8250 0.8250
1656.322457 0.8250 0.8250 0.8250 0.8270 0.8270
1660.672805 0.8270 0.8280 0.8280 0.8290 0.8310
1665.023154 0.8320 0.8320 0.8340 0.8350 0.8360
1669.373503 0.8390 0.8390 0.8440 0.8440 0.8470
1673.723851 0.8500 0.8510 0.8540 0.8550 0.8580
1678.074200 0.8610 0.8630 0.8660 0.8700 0.8730
1682.424549 0.8740 0.8760 0.8780 0.8800 0.8810
1686.774897 0.8840 0.8870 0.8890 0.8920 0.8920
1691.125246 0.8950 0.8970 0.8970 0.8970 0.8990
1695.475595 0.9020 0.9030 0.9040 0.9040 0.9060
1699.825943 0.9110 0.9120 0.9120 0.9140 0.9140
1704.176292 0.9140 0.9150 0.9170 0.9180 0.9190
1708.526641 0.9210 0.9220 0.9250 0.9270 0.9270
1712.876989 0.9310 0.9310 0.9330 0.9340 0.9360
1717.227338 0.9370 0.9380 0.9400 0.9410 0.9420
1721.577686 0.9440 0.9450 0.9450 0.9450 0.9460
1725.928035 0.9460 0.9480 0.9490 0.9490 0.9490
1730.278384 0.9490 0.9490 0.9490 0.9510 0.9510
1734.628732 0.9520 0.9530 0.9550 0.9550 0.9550
1738.979081 0.9550 0.9550 0.9550 0.9560 0.9560
1743.329430 0.9560 0.9560 0.9560 0.9570 0.9570
1747.679778 0.9570 0.9570 0.9570 0.9590 0.9590
1752.030127 0.9600 0.9610 0.9610 0.9630 0.9630
1756.380476 0.9630 0.9640 0.9640 0.9640 0.9640
1760.730824 0.9640 0.9650 0.9650 0.9650 0.9650
1765.081173 0.9650 0.9650 0.9650 0.9650 0.9650
1769.431522 0.9650 0.9670 0.9670 0.9670 0.9670
1773.781870 0.9670 0.9680 0.9680 0.9680 0.9680
1778.132219 0.9680 0.9680 0.9680 0.9680 0.9680
1782.482568 0.9680 0.9680 0.9680 0.9680 0.9680
1786.832916 0.9670 0.9670 0.9650 0.9650 0.9650
1791.183265 0.9650 0.9650 0.9650 0.9650 0.9650
1795.533614 0.9650 0.9640 0.9640 0.9640 0.9630
1799.883962 0.9630 0.9630 0.9630 0.9630 0.9630
1804.234311 0.9630 0.9630 0.9630 0.9630 0.9610
1808.584659 0.9610 0.9610 0.9610 0.9600 0.9600
1812.935008 0.9600 0.9600 0.9600 0.9610 0.9610
1817.285357 0.9610 0.9610 0.9610 0.9610 0.9610
1821.635705 0.9630 0.9630 0.9630 0.9640 0.9640
1825.986054 0.9640 0.9640 0.9640 0.9640 0.9640
1830.336403 0.9650 0.9650 0.9650 0.9650 0.9650
1834.686751 0.9640 0.9640 0.9640 0.9640 0.9640
1839.037100 0.9640 0.9640 0.9650 0.9650 0.9650
1843.387449 0.9650 0.9650 0.9670 0.9670 0.9670
1847.737797 0.9670 0.9670 0.9680 0.9680 0.9680
1852.088146 0.9680 0.9680 0.9680 0.9680 0.9680
1856.438495 0.9680 0.9680 0.9680 0.9680 0.9680
1860.788843 0.9680 0.9680 0.9680 0.9680 0.9680
1865.139192 0.9680 0.9680 0.9680 0.9680 0.9680
1869.489541 0.9680 0.9680 0.9680 0.9680 0.9670
1873.839889 0.9670 0.9670 0.9670 0.9670 0.9670
1878.190238 0.9650 0.9650 0.9650 0.9650 0.9670
1882.540586 0.9670 0.9670 0.9670 0.9670 0.9670
1886.890935 0.9670 0.9670 0.9670 0.9670 0.9670
1891.241284 0.9670 0.9670 0.9670 0.9670 0.9670
1895.591632 0.9670 0.9670 0.9670 0.9670 0.9670
1899.941981 0.9680 0.9680 0.9670 0.9680 0.9680
1904.292330 0.9680 0.9680 0.9680 0.9680 0.9670
1908.642678 0.9670 0.9670 0.9670 0.9670 0.9670
1912.993027 0.9680 0.9680 0.9680 0.9670 0.9670
1917.343376 0.9680 0.9680 0.9670 0.9670 0.9670
1921.693724 0.9670 0.9670 0.9670 0.9670 0.9670
1926.044073 0.9670 0.9670 0.9670 0.9670 0.9670
1930.394422 0.9670 0.9670 0.9670 0.9670 0.9670
1934.744770 0.9670 0.9650 0.9650 0.9650 0.9650
1939.095119 0.9650 0.9650 0.9650 0.9650 0.9650
1943.445468 0.9650 0.9650 0.9650 0.9650 0.9650
1947.795816 0.9670 0.9670 0.9670 0.9670 0.9670
1952.146165 0.9670 0.9670 0.9670 0.9680 0.9680
1956.496514 0.9700 0.9710 0.9720 0.9740 0.9760
1960.846862 0.9720 0.9650 0.9640 0.9630 0.9610
1965.197211 0.9610 0.9610 0.9610 0.9610 0.9610
1969.547559 0.9600 0.9600 0.9610 0.9610 0.9610
1973.897908 0.9600 0.9600 0.9600 0.9600 0.9600
1978.248257 0.9600 0.9600 0.9590 0.9590 0.9570
1982.598605 0.9570 0.9570 0.9570 0.9570 0.9570
1986.948954 0.9570 0.9570 0.9570 0.9570 0.9570
1991.299303 0.9570 0.9570 0.9570 0.9570 0.9570
1995.649651 1.0318 1.0320 1.0320 1.0320 1.0320
2000.000000 1.0320 1.0315 1.0310 1.0310 1.0310
2004.350349 1.0310 1.0310 1.0310 1.0310 1.0310
2008.700697 1.0310 1.0300 1.0290 1.0290 1.0290
2013.051046 1.0290 1.0290 1.0290 1.0290 1.0285
2017.401395 1.0280 1.0275 1.0270 1.0270 1.0270
2021.751743 1.0260 1.0250 1.0250 1.0250 1.0250
2026.102092 1.0250 1.0250 1.0250 1.0245 1.0240
2030.452441 1.0240 1.0240 1.0235 1.0230 1.0230
2034.802789 1.0230 1.0220 1.0210 1.0205 1.0200
2039.153138 1.0200 1.0200 1.0195 1.0190 1.0190
2043.503486 1.0190 1.0190 1.0190 1.0190 1.0190
2047.853835 1.0190 1.0190 1.0190 1.0190 1.0190
2052.204184 1.0190 1.0180 1.0171 1.0170 1.0170
2056.554532 1.0165 1.0160 1.0151 1.0141 1.0140
2060.904881 1.0140 1.0140 1.0140 1.0135 1.0130
2065.255230 1.0130 1.0130 1.0130 1.0130 1.0125
2069.605578 1.0120 1.0120 1.0120 1.0111 1.0101
2073.955927 1.0100 1.0100 1.0095 1.0090 1.0090
2078.306276 1.0090 1.0090 1.0090 1.0090 1.0090
2082.656624 1.0086 1.0080 1.0080 1.0080 1.0071
2087.006973 1.0061 1.0060 1.0060 1.0055 1.0051
2091.357322 1.0046 1.0040 1.0040 1.0040 1.0040
2095.707670 1.0040 1.0040 1.0040 1.0040 1.0040
2100.058019 1.0040 1.0040 1.0031 1.0021 1.0020
2104.408368 1.0020 1.0020 1.0020 1.0020 1.0020
2108.758716 1.0020 1.0020 1.0016 1.0011 1.0010
2113.109065 1.0010 1.0010 1.0010 1.0010 1.0010
2117.459414 1.0010 1.0010 1.0010 1.0010 1.0010
2121.809762 1.0010 1.0010 1.0010 1.0010 1.0010
2126.160111 1.0010 1.0010 1.0010 1.0010 1.0010
2130.510459 1.0010 1.0010 1.0010 1.0010 1.0010
2134.860808 1.0010 1.0010 1.0010 1.0010 1.0010
2139.211157 1.0010 1.0010 1.0010 1.0010 1.0010
2143.561505 1.0014 1.0019 1.0020 1.0020 1.0020
2147.911854 1.0020 1.0020 1.0020 1.0028 1.0038
2152.262203 1.0040 1.0040 1.0040 1.0040 1.0040
2156.612551 1.0040 1.0040 1.0040 1.0040 1.0040
2160.962900 1.0040 1.0040 1.0040 1.0040 1.0040
2165.313249 1.0040 1.0040 1.0040 1.0040 1.0040
2169.663597 1.0040 1.0040 1.0040 1.0040 1.0040
2174.013946 1.0040 1.0040 1.0040 1.0040 1.0040
2178.364295 1.0040 1.0040 1.0040 1.0040 1.0040
2182.714643 1.0040 1.0040 1.0040 1.0040 1.0040
2187.064992 1.0044 1.0049 1.0050 1.0050 1.0050
2191.415341 1.0050 1.0054 1.0059 1.0060 1.0060
2195.765689 1.0060 1.0060 1.0060 1.0060 1.0060
2200.116038 1.0060 1.0060 1.0060 1.0060 1.0060
2204.466386 1.0056 1.0051 1.0050 1.0050 1.0050
2208.816735 1.0050 1.0050 1.0050 1.0050 1.0050
2213.167084 1.0050 1.0050 1.0046 1.0041 1.0040
2217.517432 1.0040 1.0040 1.0040 1.0040 1.0040
2221.867781 1.0044 1.0049 1.0050 1.0050 1.0050
2226.218130 1.0050 1.0050 1.0050 1.0050 1.0050
2230.568478 1.0050 1.0050 1.0050 1.0050 1.0050
2234.918827 1.0050 1.0046 1.0041 1.0040 1.0040
2239.269176 1.0040 1.0040 1.0040 1.0040 1.0040
2243.619524 1.0040 1.0040 1.0040 1.0040 1.0040
2247.969873 1.0040 1.0040 1.0040 1.0040 1.0033
2252.320222 1.0023 1.0016 1.0011 1.0010 1.0010
2256.670570 1.0010 1.0010 1.0010 1.0010 1.0010
2261.020919 1.0010 1.0010 1.0010 1.0010 1.0010
2265.371268 1.0006 1.0001 1.0000 1.0000 0.9993
2269.721616 0.9983 0.9980 0.9980 0.9980 0.9980
2274.071965 0.9980 0.9980 0.9980 0.9980 0.9980
2278.422314 0.9980 0.9976 0.9971 0.9970 0.9970
2282.772662 0.9970 0.9970 0.9970 0.9970 0.9970
2287.123011 0.9970 0.9970 0.9970 0.9970 0.9970
2291.473359 0.9970 0.9970 0.9960 0.9945 0.9940
2295.823708 0.9940 0.9940 0.9940 0.9940 0.9940
2300.174057 0.9940 0.9940 0.9940 0.9940 0.9940
2304.524405 0.9940 0.9940 0.9940 0.9940 0.9940
2308.874754 0.9940 0.9940 0.9937 0.9932 0.9930
2313.225103 0.9930 0.9930 0.9930 0.9933 0.9938
2317.575451 0.9940 0.9940 0.9940 0.9940 0.9940
2321.925800 0.9940 0.9940 0.9940 0.9940 0.9940
2326.276149 0.9940 0.9940 0.9937 0.9932 0.9923
2330.626497 0.9913 0.9907 0.9902 0.9900 0.9900
2334.976846 0.9900 0.9900 0.9897 0.9892 0.9890
2339.327195 0.9890 0.9890 0.9890 0.9890 0.9890
2343.677543 0.9890 0.9890 0.9893 0.9898 0.9903
2348.027892 0.9908 0.9910 0.9910 0.9910 0.9910
2352.378241 0.9907 0.9902 0.9900 0.9900 0.9890
2356.728589 0.9875 0.9864 0.9854 0.9841 0.9826
2361.078938 0.9814 0.9804 0.9800 0.9800 0.9797
2365.429286 0.9792 0.9790 0.9790 0.9790 0.9790
2369.779635 0.9790 0.9790 0.9790 0.9790 0.9793
2374.129984 0.9798 0.9800 0.9800 0.9806 0.9816
2378.480332 0.9820 0.9820 0.9820 0.9820 0.9823
2382.830681 0.9828 0.9830 0.9830 0.9827 0.9822
2387.181030 0.9820 0.9820 0.9814 0.9804 0.9800
2391.531378 0.9800 0.9800 0.9800 0.9800 0.9800
2395.881727 0.9800 0.9800 0.9800 0.9800 0.9800
2400.232076 0.9800 0.9800 0.9800 0.9797 0.9792
2404.582424 0.9790 0.9790 0.9790 0.9790 0.9787
2408.932773 0.9782 0.9780 0.9780 0.9780 0.9780
2413.283122 0.9780 0.9780 0.9780 0.9780 0.9774
2417.633470 0.9764 0.9760 0.9760 0.9760 0.9760
2421.983819 0.9760 0.9760 0.9757 0.9752 0.9753
2426.334168 0.9758 0.9760 0.9760 0.9760 0.9760
2430.684516 0.9754 0.9744 0.9740 0.9740 0.9740
2435.034865 0.9740 0.9740 0.9740 0.9740 0.9740
2439.385214 0.9740 0.9740 0.9740 0.9740 0.9740
2443.735562 0.9740 0.9740 0.9740 0.9735 0.9725
2448.085911 0.9720 0.9720 0.9720 0.9720 0.9720
2452.436259 0.9720 0.9720 0.9720 0.9720 0.9720
2456.786608 0.9720 0.9720 0.9717 0.9712 0.9710
2461.136957 0.9710 0.9710 0.9710 0.9710 0.9710
2465.487305 0.9707 0.9702 0.9700 0.9700 0.9695
2469.837654 0.9685 0.9680 0.9680 0.9680 0.9680
2474.188003 0.9677 0.9672 0.9670 0.9670 0.9665
2478.538351 0.9655 0.9650 0.9650 0.9647 0.9642
2482.888700 0.9640 0.9640 0.9638 0.9633 0.9625
2487.239049 0.9615 0.9607 0.9602 0.9597 0.9592
2491.589397 0.9585 0.9575 0.9570 0.9570 0.9568
2495.939746 0.9563 0.9560 0.9560 0.9560 0.9560
2500.290095 0.9558 0.9553 0.9545 0.9535 0.9528
2504.640443 0.9523 0.9518 0.9513 0.9505 0.9495
2508.990792 0.9488 0.9483 0.9475 0.9465 0.9460
2513.341141 0.9460 0.9460 0.9460 0.9458 0.9453
2517.691489 0.9450 0.9450 0.9448 0.9443 0.9433
2522.041838 0.9418 0.9410 0.9410 0.9410 0.9410
2526.392186 0.9408 0.9403 0.9393 0.9378 0.9368
2530.742535 0.9363 0.9355 0.9345 0.9340 0.9340
2535.092884 0.9338 0.9333 0.9326 0.9316 0.9310
2539.443232 0.9310 0.9310 0.9310 0.9308 0.9303
2543.793581 0.9298 0.9293 0.9286 0.9276 0.9268
2548.143930 0.9263 0.9258 0.9253 0.9250 0.9250
2552.494278 0.9246 0.9236 0.9228 0.9223 0.9218
2556.844627 0.9213 0.9206 0.9196 0.9190 0.9190
2561.194976 0.9188 0.9183 0.9180 0.9180 0.9178
2565.545324 0.9173 0.9166 0.9156 0.9150 0.9150
2569.895673 0.9148 0.9143 0.9140 0.9140 0.9140
2574.246022 0.9140 0.9136 0.9126 0.9120 0.9120
2578.596370 0.9120 0.9120 0.9118 0.9113 0.9110
2582.946719 0.9110 0.9110 0.9110 0.9110 0.9110
2587.297068 0.9108 0.9103 0.9100 0.9100 0.9100
2591.647416 0.9100 0.9100 0.9100 0.9100 0.9100
2595.997765 0.9100 0.9100 0.9100 0.9100 0.9100
2600.348114 0.9100 0.9096 0.9086 0.9080 0.9080
2604.698462 0.9078 0.9073 0.9070 0.9070 0.9068
2609.048811 0.9063 0.9060 0.9060 0.9060 0.9060
2613.399159 0.9060 0.9060 0.9060 0.9060 0.9060
2617.749508 0.9060 0.9060 0.9060 0.9056 0.9046
2622.099857 0.9040 0.9040 0.9040 0.9040 0.9040
2626.450205 0.9040 0.9040 0.9040 0.9040 0.9040
2630.800554 0.9038 0.9033 0.9030 0.9030 0.9030
2635.150903 0.9030 0.9028 0.9023 0.9020 0.9020
2639.501251 0.9020 0.9020 0.9017 0.9007 0.9000
2643.851600 0.9000 0.8998 0.8993 0.8990 0.8990
2648.201949 0.8990 0.8990 0.8990 0.8990 0.8987
2652.552297 0.8977 0.8970 0.8970 0.8968 0.8963
2656.902646 0.8958 0.8953 0.8947 0.8937 0.8930
2661.252995 0.8930 0.8930 0.8930 0.8928 0.8923
2665.603343 0.8920 0.8920 0.8918 0.8913 0.8910
2669.953692 0.8910 0.8910 0.8910 0.8905 0.8890
2674.304041 0.8878 0.8873 0.8870 0.8870 0.8867
2678.654389 0.8857 0.8848 0.8843 0.8837 0.8827
2683.004738 0.8820 0.8820 0.8818 0.8813 0.8808
2687.355086 0.8803 0.8797 0.8787 0.8777 0.8767
2691.705435 0.8760 0.8760 0.8756 0.8741 0.8730
2696.055784 0.8730 0.8728 0.8724 0.8717 0.8707
2700.406132 0.8699 0.8694 0.8690 0.8690 0.8689
2704.756481 0.8684 0.8677 0.8667 0.8659 0.8654
2709.106830 0.8650 0.8650 0.8647 0.8637 0.8629
2713.457178 0.8624 0.8620 0.8620 0.8619 0.8614
2717.807527 0.8607 0.8597 0.8590 0.8590 0.8589
2722.157876 0.8584 0.8580 0.8580 0.8579 0.8574
2726.508224 0.8567 0.8557 0.8549 0.8544 0.8536
2730.858573 0.8521 0.8510 0.8510 0.8510 0.8510
2735.208922 0.8509 0.8504 0.8497 0.8487 0.8480
2739.559270 0.8480 0.8478 0.8468 0.8456 0.8441
2743.909619 0.8429 0.8424 0.8420 0.8420 0.8416
2748.259968 0.8401 0.8386 0.8371 0.8359 0.8354
2752.610316 0.8349 0.8344 0.8338 0.8328 0.8320
2756.960665 0.8320 0.8317 0.8302 0.8289 0.8284
2761.311014 0.8277 0.8262 0.8249 0.8244 0.8240
2765.661362 0.8240 0.8236 0.8222 0.8209 0.8204
2770.011711 0.8197 0.8182 0.8167 0.8152 0.8139
2774.362059 0.8134 0.8129 0.8124 0.8117 0.8102
2778.712408 0.8087 0.8072 0.8056 0.8036 0.8018
2783.062757 0.8008 0.7998 0.7988 0.7977 0.7962
2787.413105 0.7948 0.7938 0.7924 0.7894 0.7866
2791.763454 0.7846 0.7826 0.7806 0.7789 0.7784
2796.113803 0.7774 0.7744 0.7715 0.7690 0.7664
2800.464151 0.7634 0.7606 0.7586 0.7566 0.7546
2804.814500 0.7528 0.7518 0.7505 0.7480 0.7455
2809.164849 0.7430 0.7407 0.7392 0.7376 0.7351
2813.515197 0.7325 0.7295 0.7269 0.7264 0.7257
2817.865546 0.7237 0.7215 0.7191 0.7166 0.7141
2822.215895 0.7116 0.7091 0.7067 0.7052 0.7037
2826.566243 0.7017 0.6997 0.6977 0.6957 0.6937
2830.916592 0.6911 0.6857 0.6808 0.6793 0.6779
2835.266941 0.6768 0.6758 0.6743 0.6724 0.6684
2839.617289 0.6645 0.6615 0.6581 0.6521 0.6463
2843.967638 0.6418 0.6377 0.6357 0.6338 0.6323
2848.317986 0.6300 0.6230 0.6159 0.6079 0.6000
2852.668335 0.5925 0.5848 0.5768 0.5693 0.5643
2857.018684 0.5592 0.5532 0.5469 0.5384 0.5294
2861.369032 0.5169 0.5042 0.4902 0.4774 0.4724
2865.719381 0.4666 0.4546 0.4432 0.4368 0.4307
2870.069730 0.4276 0.4249 0.4244 0.4241 0.4246
2874.420078 0.4251 0.4261 0.4273 0.4298 0.4324
2878.770427 0.4359 0.4396 0.4451 0.4506 0.4561
2883.120776 0.4616 0.4676 0.4732 0.4752 0.4770
2887.471124 0.4776 0.4780 0.4780 0.4779 0.4774
2891.821473 0.4770 0.4770 0.4768 0.4754 0.4739
2896.171822 0.4729 0.4716 0.4671 0.4626 0.4576
2900.522170 0.4526 0.4481 0.4438 0.4408 0.4379
2904.872519 0.4364 0.4347 0.4312 0.4276 0.4231
2909.222868 0.4185 0.4130 0.4077 0.4048 0.4018
2913.573216 0.3993 0.3968 0.3938 0.3909 0.3899
2917.923565 0.3889 0.3869 0.3845 0.3776 0.3708
2922.273914 0.3667 0.3625 0.3566 0.3508 0.3478
2926.624262 0.3448 0.3413 0.3378 0.3343 0.3308
2930.974611 0.3268 0.3230 0.3225 0.3220 0.3215
2935.324959 0.3210 0.3215 0.3221 0.3236 0.3251
2939.675308 0.3276 0.3302 0.3337 0.3373 0.3428
2944.025657 0.3482 0.3517 0.3551 0.3571 0.3592
2948.376005 0.3632 0.3673 0.3753 0.3834 0.3928
2952.726354 0.4021 0.4041 0.4060 0.4060 0.4058
2957.076703 0.3993 0.3927 0.3857 0.3785 0.3645
2961.427051 0.3505 0.3365 0.3226 0.3091 0.2956
2965.777400 0.2816 0.2677 0.2537 0.2397 0.2263
2970.127749 0.2128 0.1993 0.1858 0.1708 0.1560
2974.478097 0.1545 0.1530 0.1545 0.1561 0.1601
2978.828446 0.1642 0.1731 0.1820 0.1835 0.1851
2983.178795 0.1966 0.2081 0.2231 0.2380 0.2485
2987.529143 0.2590 0.3299 0.4007 0.4308 0.4608
2991.879492 0.4780 0.4951 0.5035 0.5120 0.5175
2996.229841 0.5230 0.5315 0.5400 0.5554 0.5709
3000.580189 0.5978 0.6247 0.6433 0.6617 0.6827
3004.930538 0.7036 0.7069 0.7099 0.7154 0.7209
3009.280886 0.7235 0.7260 0.7295 0.7330 0.7369
3013.631235 0.7409 0.7415 0.7420 0.7420 0.7420
3017.981584 0.7420 0.7420 0.7430 0.7440 0.7440
3022.331932 0.7440 0.7445 0.7450 0.7450 0.7450
3026.682281 0.7450 0.7450 0.7445 0.7440 0.7430
3031.032630 0.7420 0.7415 0.7410 0.7405 0.7400
3035.382978 0.7390 0.7380 0.7375 0.7370 0.7365
3039.733327 0.7360 0.7336 0.7311 0.7305 0.7300
3044.083676 0.7286 0.7271 0.7265 0.7260 0.7255
3048.434024 0.7250 0.7241 0.7231 0.7206 0.7181
3052.784373 0.7166 0.7151 0.7145 0.7140 0.7121
3057.134722 0.7101 0.7091 0.7081 0.7071 0.7061
3061.485070 0.7046 0.7031 0.7011 0.6991 0.6962
3065.835419 0.6932 0.6921 0.6911 0.6901 0.6891
3070.185768 0.6858 0.6823 0.6797 0.6772 0.6752
3074.536116 0.6732 0.6712 0.6692 0.6676 0.6661
3078.886465 0.6646 0.6631 0.6612 0.6592 0.6553
3083.236814 0.6513 0.6487 0.6462 0.6451 0.6441
3087.587162 0.6417 0.6392 0.6368 0.6343 0.6318
3091.937511 0.6293 0.6254 0.6214 0.6179 0.6144
3096.287859 0.6136 0.6130 0.6094 0.6054 0.6032
3100.638208 0.6012 0.5974 0.5934 0.5899 0.5864
3104.988557 0.5825 0.5785 0.5767 0.5752 0.5746
3109.338905 0.5741 0.5692 0.5637 0.5599 0.5565
3113.689254 0.5538 0.5513 0.5497 0.5482 0.5467
3118.039603 0.5452 0.5415 0.5375 0.5335 0.5295
3122.389951 0.5264 0.5234 0.5204 0.5174 0.5157
3126.740300 0.5142 0.5131 0.5121 0.5077 0.5027
3131.090649 0.5007 0.4992 0.4955 0.4915 0.4893
3135.440997 0.4873 0.4840 0.4805 0.4774 0.4744
3139.791346 0.4702 0.4657 0.4603 0.4548 0.4510
3144.141695 0.4475 0.4453 0.4433 0.4409 0.4384
3148.492043 0.4334 0.4278 0.4228 0.4178 0.4140
3152.842392 0.4105 0.4083 0.4063 0.4035 0.4005
3157.192741 0.3992 0.3982 0.3968 0.3953 0.3917
3161.543089 0.3877 0.3841 0.3806 0.3780 0.3755
3165.893438 0.3729 0.3704 0.3671 0.3636 0.3622
3170.243786 0.3612 0.3577 0.3537 0.3485 0.3430
3174.594135 0.3416 0.3411 0.3382 0.3347 0.3324
3178.944484 0.3304 0.3268 0.3228 0.3200 0.3175
3183.294832 0.3146 0.3116 0.3077 0.3037 0.2998
3187.645181 0.2958 0.2934 0.2914 0.2870 0.2820
3191.995530 0.2762 0.2702 0.2662 0.2627 0.2600
3196.345878 0.2575 0.2546 0.2516 0.2490 0.2465
3200.696227 0.2444 0.2424 0.2396 0.2366 0.2332
3205.046576 0.2297 0.2274 0.2254 0.2234 0.2214
3209.396924 0.2190 0.2166 0.2144 0.2124 0.2105
3213.747273 0.2085 0.2065 0.2045 0.2032 0.2022
3218.097622 0.2012 0.2002 0.1961 0.1911 0.1881
3222.447970 0.1856 0.1831 0.1806 0.1781 0.1756
3226.798319 0.1735 0.1715 0.1695 0.1675 0.1643
3231.148668 0.1609 0.1589 0.1574 0.1551 0.1526
3235.499016 0.1516 0.1511 0.1499 0.1484 0.1465
3239.849365 0.1445 0.1414 0.1379 0.1366 0.1361
3244.199714 0.1341 0.1316 0.1303 0.1293 0.1283
3248.550062 0.1273 0.1255 0.1235 0.1215 0.1195
3252.900411 0.1186 0.1181 0.1169 0.1154 0.1146
3257.250759 0.1141 0.1133 0.1123 0.1113 0.1103
3261.601108 0.1085 0.1065 0.1060 0.1060 0.1049
3265.951457 0.1034 0.1026 0.1021 0.1013 0.1003
3270.301805 0.0996 0.0991 0.0983 0.0973 0.0956
3274.652154 0.0936 0.0923 0.0913 0.0903 0.0893
3279.002503 0.0890 0.0890 0.0876 0.0856 0.0839
3283.352851 0.0824 0.0816 0.0812 0.0807 0.0802
3287.703200 0.0800 0.0800 0.0793 0.0783 0.0776
3292.053549 0.0771 0.0766 0.0761 0.0750 0.0735
3296.403897 0.0727 0.0722 0.0710 0.0695 0.0690
3300.754246 0.0690 0.0687 0.0682 0.0673 0.0663
3305.104595 0.0657 0.0652 0.0650 0.0650 0.0650
3309.454943 0.0650 0.0643 0.0633 0.0630 0.0630
3313.805292 0.0627 0.0622 0.0620 0.0620 0.0617
3318.155641 0.0612 0.0603 0.0593 0.0590 0.0590
3322.505989 0.0587 0.0582 0.0577 0.0572 0.0570
3326.856338 0.0570 0.0560 0.0545 0.0540 0.0540
3331.206686 0.0537 0.0532 0.0530 0.0530 0.0523
3335.557035 0.0513 0.0510 0.0510 0.0510 0.0510
3339.907384 0.0510 0.0510 0.0510 0.0510 0.0507
3344.257732 0.0502 0.0500 0.0500 0.0500 0.0500
3348.608081 0.0494 0.0484 0.0480 0.0480 0.0480
3352.958430 0.0480 0.0477 0.0472 0.0470 0.0470
3357.308778 0.0470 0.0470 0.0470 0.0470 0.0470
3361.659127 0.0470 0.0470 0.0470 0.0470 0.0470
3366.009476 0.0470 0.0470 0.0470 0.0470 0.0470
3370.359824 0.0470 0.0473 0.0478 0.0480 0.0480
3374.710173 0.0480 0.0480 0.0480 0.0480 0.0480
3379.060522 0.0480 0.0480 0.0480 0.0486 0.0496
3383.410870 0.0500 0.0500 0.0500 0.0500 0.0500
3387.761219 0.0500 0.0500 0.0500 0.0500 0.0500
3392.111568 0.0503 0.0508 0.0510 0.0510 0.0510
3396.461916 0.0510 0.0510 0.0510 0.0510 0.0510
3400.812265 0.0516 0.0526 0.0530 0.0530 0.0533
3405.162614 0.0538 0.0540 0.0540 0.0543 0.0548
3409.512962 0.0550 0.0550 0.0556 0.0566 0.0576
3413.863311 0.0586 0.0590 0.0590 0.0596 0.0606
3418.213659 0.0610 0.0610 0.0613 0.0618 0.0620
3422.564008 0.0620 0.0623 0.0628 0.0636 0.0646
3426.914357 0.0653 0.0658 0.0660 0.0660 0.0669
3431.264705 0.0683 0.0693 0.0698 0.0706 0.0716
3435.615054 0.0723 0.0728 0.0738 0.0753 0.0763
3439.965403 0.0768 0.0773 0.0778 0.0785 0.0795
3444.315751 0.0803 0.0808 0.0813 0.0818 0.0826
3448.666100 0.0835 0.0848 0.0863 0.0873 0.0878
3453.016449 0.0893 0.0918 0.0938 0.0953 0.0968
3457.366797 0.0983 0.1001 0.1021 0.1033 0.1038
3461.717146 0.1045 0.1055 0.1065 0.1075 0.1085
3466.067495 0.1095 0.1105 0.1115 0.1136 0.1166
3470.417843 0.1183 0.1188 0.1198 0.1213 0.1230
3474.768192 0.1250 0.1268 0.1283 0.1303 0.1328
3479.118541 0.1350 0.1370 0.1396 0.1426 0.1450
3483.468889 0.1470 0.1490 0.1510 0.1530 0.1550
3487.819238 0.1563 0.1568 0.1590 0.1630 0.1675
3492.169586 0.1725 0.1762 0.1787 0.1812 0.1837
3496.519935 0.1860 0.1880 0.1895 0.1905 0.1927
3500.870284 0.1962 0.1990 0.2010 0.2037 0.2072
3505.220632 0.2107 0.2142 0.2177 0.2212 0.2242
3509.570981 0.2267 0.2297 0.2332 0.2367 0.2401
3513.921330 0.2439 0.2479 0.2517 0.2552 0.2584
3518.271678 0.2614 0.2651 0.2696 0.2739 0.2779
3522.622027 0.2816 0.2851 0.2889 0.2929 0.2966
3526.972376 0.3001 0.3038 0.3078 0.3116 0.3151
3531.322724 0.3184 0.3214 0.3246 0.3281 0.3314
3535.673073 0.3344 0.3374 0.3404 0.3436 0.3471
3540.023422 0.3506 0.3541 0.3578 0.3618 0.3656
3544.373770 0.3691 0.3721 0.3746 0.3780 0.3825
3548.724119 0.3892 0.3987 0.4074 0.4149 0.4199
3553.074468 0.4219 0.4250 0.4295 0.4342 0.4392
3557.424816 0.4437 0.4477 0.4517 0.4557 0.4606
3561.775165 0.4666 0.4723 0.4778 0.4816 0.4831
3566.125514 0.4842 0.4847 0.4874 0.4929 0.4975
3570.475862 0.5010 0.5053 0.5108 0.5159 0.5204
3574.826211 0.5238 0.5258 0.5282 0.5312 0.5357
3579.176559 0.5422 0.5495 0.5579 0.5662 0.5742
3583.526908 0.5818 0.5889 0.5945 0.5979 0.6018
3587.877257 0.6063 0.6106 0.6146 0.6194 0.6254
3592.227605 0.6310 0.6360 0.6418 0.6488 0.6540
3596.577954 0.6565 0.6599 0.6649 0.6697 0.6742
3600.928303 0.6789 0.6840 0.6910 0.7010 0.7076
3605.278651 0.7091 0.7104 0.7114 0.7145 0.7210
3609.629000 0.7261 0.7291 0.7321 0.7351 0.7383
3613.979349 0.7418 0.7449 0.7474 0.7497 0.7517
3618.329697 0.7543 0.7578 0.7613 0.7648 0.7687
3622.680046 0.7732 0.7766 0.7781 0.7797 0.7817
3627.030395 0.7843 0.7878 0.7909 0.7934 0.7961
3631.380743 0.7991 0.8019 0.8044 0.8070 0.8100
3635.731092 0.8124 0.8134 0.8149 0.8174 0.8197
3640.081441 0.8217 0.8239 0.8264 0.8291 0.8320
3644.431789 0.8342 0.8347 0.8357 0.8377 0.8395
3648.782138 0.8410 0.8430 0.8460 0.8488 0.8513
3653.132486 0.8532 0.8537 0.8545 0.8560 0.8572
3657.482835 0.8577 0.8587 0.8607 0.8625 0.8640
3661.833184 0.8655 0.8670 0.8683 0.8693 0.8703
3666.183532 0.8713 0.8722 0.8727 0.8732 0.8737
3670.533881 0.8745 0.8760 0.8775 0.8790 0.8800
3674.884230 0.8800 0.8802 0.8807 0.8812 0.8817
3679.234578 0.8825 0.8840 0.8855 0.8870 0.8885
3683.584927 0.8900 0.8912 0.8916 0.8921 0.8926
3687.935276 0.8936 0.8956 0.8978 0.9003 0.9028
3692.285624 0.9053 0.9072 0.9077 0.9083 0.9093
3696.635973 0.9100 0.9100 0.9103 0.9113 0.9124
3700.986322 0.9139 0.9154 0.9169 0.9180 0.9180
3705.336670 0.9181 0.9186 0.9190 0.9190 0.9193
3709.687019 0.9203 0.9210 0.9210 0.9211 0.9216
3714.037368 0.9220 0.9220 0.9221 0.9226 0.9230
3718.387716 0.9230 0.9233 0.9243 0.9250 0.9250
3722.738065 0.9250 0.9250 0.9251 0.9256 0.9260
3727.088414 0.9260 0.9260 0.9260 0.9260 0.9260
3731.438762 0.9260 0.9260 0.9260 0.9260 0.9260
3735.789111 0.9260 0.9260 0.9260 0.9261 0.9266
3740.139459 0.9270 0.9270 0.9270 0.9270 0.9270
3744.489808 0.9270 0.9270 0.9270 0.9270 0.9270
3748.840157 0.9270 0.9270 0.9270 0.9270 0.9270
3753.190505 0.9270 0.9272 0.9282 0.9290 0.9290
3757.540854 0.9290 0.9290 0.9291 0.9296 0.9300
3761.891203 0.9300 0.9300 0.9300 0.9300 0.9300
3766.241551 0.9300 0.9300 0.9300 0.9300 0.9300
3770.591900 0.9300 0.9301 0.9306 0.9310 0.9310
3774.942249 0.9310 0.9310 0.9310 0.9310 0.9310
3779.292597 0.9310 0.9310 0.9310 0.9310 0.9310
3783.642946 0.9310 0.9310 0.9310 0.9310 0.9309
3787.993295 0.9304 0.9300 0.9300 0.9300 0.9300
3792.343643 0.9300 0.9300 0.9300 0.9300 0.9300
3796.693992 0.9300 0.9300 0.9300 0.9300 0.9300
##END=
