##TITLE=1,2-DICHLOROPROPENE
##JCAMP-DX=4.24
##DATA TYPE=INFRARED SPECTRUM
##CLASS=COBLENTZ
##ORIGIN=W.T. BOLLETER
##OWNER=COBLENTZ SOCIETY
Collection (C) 2018 copyright by the U.S. Secretary of Commerce
on behalf of the United States of America. All rights reserved.
##DATE=Not specified, most likely prior to 1970
##NAMES=(1Z)-1,2-dichloro-1-propene
##CAS REGISTRY NO=563-54-2
##MOLFORM=C3 H4 Cl2
##SOURCE REFERENCE=COBLENTZ NO. 4488
##$NIST SOURCE=COBLENTZ
##$NIST IMAGE=cob4488
##SPECTROMETER/DATA SYSTEM=Not specified, most likely a prism, grating, or hybrid spectrometer.
##PATH LENGTH=0.0025 CM
##SAMPLING PROCEDURE=TRANSMISSION
##RESOLUTION=4
##DATA PROCESSING=DIGITIZED BY NIST FROM HARD COPY
##XUNITS=MICROMETERS
##YUNITS=TRANSMITTANCE
##XFACTOR=1.000000
##YFACTOR=1
##DELTAX=000.017531
##FIRSTX=14.508
##LASTX=37.9828
##FIRSTY=0.253
##MAXX=37.9828
##MINX=14.508
##MAXY=0.926
##MINY=0.005
##NPOINTS=1340
##XYDATA=(X++(Y..Y))
14.508000 0.2530 0.2570 0.2600 0.2660 0.3370
14.595721 0.3640 0.3980 0.4260 0.4480 0.4690
14.684000 0.4920 0.5010 0.5250 0.5420 0.5600
14.771721 0.5690 0.5800 0.5920 0.5960 0.6010
14.859000 0.6100 0.6210 0.6300 0.6370 0.6460
14.946721 0.6480 0.6530 0.6580 0.6660 0.6690
15.034000 0.6730 0.6760 0.6800 0.6820 0.6830
15.121721 0.6830 0.6870 0.6890 0.6910 0.6960
15.210000 0.7000 0.7010 0.7120 0.7170 0.7260
15.297721 0.7370 0.7480 0.7530 0.7690 0.7750
15.385000 0.7800 0.7890 0.7960 0.8000 0.8000
15.472721 0.8070 0.8100 0.8160 0.8170 0.8190
15.560000 0.8250 0.8260 0.8280 0.8300 0.8320
15.647721 0.8330 0.8350 0.8370 0.8390 0.8390
15.736000 0.8390 0.8410 0.8410 0.8410 0.8410
15.823721 0.8410 0.8410 0.8390 0.8390 0.8390
15.911000 0.8390 0.8390 0.8390 0.8370 0.8370
15.998721 0.8350 0.8350 0.8330 0.8320 0.8300
16.086000 0.8300 0.8280 0.8250 0.8210 0.8190
16.173721 0.8170 0.8140 0.8120 0.8080 0.8010
16.262000 0.8000 0.7960 0.7850 0.7780 0.7750
16.349721 0.7690 0.7620 0.7510 0.7460 0.7350
16.437000 0.7230 0.7030 0.6960 0.6690 0.6370
16.524721 0.6120 0.5890 0.5530 0.5280 0.4980
16.612000 0.4730 0.4500 0.4330 0.4160 0.4010
16.699721 0.3940 0.3890 0.3890 0.3920 0.4030
16.787000 0.4280 0.4460 0.4660 0.4910 0.5160
16.874721 0.5410 0.5710 0.5920 0.6070 0.6170
16.963000 0.6390 0.6640 0.6910 0.7100 0.7210
17.050721 0.7280 0.7320 0.7410 0.7420 0.7440
17.138000 0.7500 0.7510 0.7530 0.7570 0.7570
17.225721 0.7580 0.7580 0.7600 0.7600 0.7600
17.313000 0.7620 0.7640 0.7660 0.7690 0.7710
17.400721 0.7710 0.7750 0.7760 0.7780 0.7820
17.489000 0.7850 0.7870 0.7890 0.7910 0.7920
17.576721 0.7940 0.7960 0.8000 0.8030 0.8070
17.664000 0.8080 0.8120 0.8120 0.8170 0.8210
17.751721 0.8250 0.8280 0.8320 0.8350 0.8370
17.839000 0.8410 0.8460 0.8480 0.8510 0.8600
17.926721 0.8620 0.8640 0.8660 0.8670 0.8710
18.015000 0.8730 0.8750 0.8760 0.8760 0.8780
18.102721 0.8800 0.8800 0.8820 0.8820 0.8830
18.190000 0.8850 0.8870 0.8870 0.8890 0.8910
18.277721 0.8910 0.8920 0.8920 0.8920 0.8920
18.365000 0.8920 0.8920 0.8910 0.8910 0.8890
18.452721 0.8890 0.8870 0.8870 0.8850 0.8830
18.541000 0.8830 0.8820 0.8800 0.8800 0.8780
18.628721 0.8780 0.8780 0.8760 0.8750 0.8750
18.716000 0.8730 0.8690 0.8670 0.8660 0.8660
18.803721 0.8640 0.8640 0.8640 0.8640 0.8620
18.891000 0.8600 0.8600 0.8600 0.8600 0.8620
18.978721 0.8620 0.8620 0.8640 0.8640 0.8660
19.066000 0.8670 0.8670 0.8690 0.8690 0.8690
19.153721 0.8710 0.8710 0.8710 0.8710 0.8710
19.242000 0.8710 0.8710 0.8710 0.8690 0.8690
19.329721 0.8670 0.8670 0.8660 0.8660 0.8640
19.417000 0.8640 0.8620 0.8620 0.8620 0.8620
19.504721 0.8600 0.8580 0.8580 0.8570 0.8550
19.592000 0.8550 0.8550 0.8510 0.8510 0.8500
19.679721 0.8500 0.8480 0.8420 0.8390 0.8390
19.768000 0.8370 0.8350 0.8330 0.8300 0.8260
19.855721 0.8250 0.8230 0.8210 0.8190 0.8170
19.943000 0.8120 0.8100 0.8070 0.8030 0.8010
20.030721 0.8000 0.7980 0.7960 0.7940 0.7910
20.118000 0.7890 0.7870 0.7830 0.7820 0.7800
20.205721 0.7800 0.7800 0.7800 0.7780 0.7780
20.294000 0.7780 0.7780 0.7780 0.7780 0.7780
20.381721 0.7780 0.7780 0.7780 0.7760 0.7760
20.469000 0.7760 0.7760 0.7760 0.7760 0.7750
20.556721 0.7750 0.7730 0.7730 0.7730 0.7730
20.644000 0.7710 0.7690 0.7690 0.7670 0.7660
20.731721 0.7640 0.7640 0.7600 0.7600 0.7580
20.820000 0.7580 0.7570 0.7550 0.7510 0.7510
20.907721 0.7500 0.7500 0.7480 0.7460 0.7440
20.995000 0.7410 0.7390 0.7390 0.7370 0.7350
21.082721 0.7330 0.7320 0.7300 0.7300 0.7280
21.170000 0.7230 0.7190 0.7170 0.7140 0.7120
21.257721 0.7080 0.7050 0.7010 0.7010 0.6980
21.346000 0.6960 0.6910 0.6850 0.6800 0.6750
21.433721 0.6690 0.6620 0.6530 0.6460 0.6370
21.521000 0.6280 0.6210 0.6140 0.6030 0.5920
21.608721 0.5780 0.5660 0.5510 0.5350 0.5190
21.696000 0.5010 0.4940 0.4780 0.4730 0.4620
21.783721 0.4570 0.4530 0.4510 0.4480 0.4460
21.871000 0.4440 0.4440 0.4460 0.4460 0.4480
21.958721 0.4500 0.4510 0.4530 0.4530 0.4550
22.047000 0.4570 0.4570 0.4550 0.4550 0.4530
22.134721 0.4530 0.4510 0.4480 0.4440 0.4350
22.222000 0.4280 0.4260 0.4210 0.4160 0.4120
22.309721 0.4030 0.4000 0.3960 0.3830 0.3760
22.397000 0.3660 0.3530 0.3460 0.3350 0.3250
22.484721 0.3170 0.3070 0.3010 0.2940 0.2820
22.573000 0.2730 0.2620 0.2480 0.2440 0.2280
22.660721 0.2120 0.2000 0.1960 0.1850 0.1730
22.748000 0.1660 0.1530 0.1440 0.1320 0.1210
22.835721 0.1170 0.1030 0.0960 0.0820 0.0750
22.923000 0.0690 0.0660 0.0600 0.0530 0.0410
23.010721 0.0320 0.0280 0.0210 0.0190 0.0190
23.099000 0.0170 0.0160 0.0140 0.0120 0.0100
23.186721 0.0080 0.0080 0.0080 0.0080 0.0080
23.274000 0.0070 0.0070 0.0050 0.0050 0.0050
23.361721 0.0050 0.0050 0.0050 0.0070 0.0070
23.449000 0.0080 0.0100 0.0140 0.0170 0.0210
23.536721 0.0230 0.0250 0.0300 0.0320 0.0370
23.625000 0.0460 0.0510 0.0640 0.0780 0.0830
23.712721 0.0890 0.0980 0.1050 0.1260 0.1440
23.800000 0.1530 0.1690 0.1920 0.2030 0.2230
23.887721 0.2440 0.2580 0.2710 0.2920 0.3030
23.975000 0.3170 0.3320 0.3440 0.3550 0.3670
24.062721 0.3820 0.3940 0.3980 0.4010 0.4160
24.150000 0.4260 0.4320 0.4390 0.4500 0.4640
24.237721 0.4750 0.4820 0.4890 0.4940 0.4980
24.326000 0.5030 0.5070 0.5140 0.5210 0.5260
24.413721 0.5320 0.5350 0.5410 0.5460 0.5500
24.501000 0.5530 0.5570 0.5620 0.5640 0.5670
24.588721 0.5710 0.5730 0.5750 0.5780 0.5800
24.676000 0.5800 0.5820 0.5820 0.5820 0.5820
24.763721 0.5820 0.5820 0.5800 0.5760 0.5730
24.852000 0.5670 0.5620 0.5570 0.5510 0.5460
24.939721 0.5330 0.5170 0.5010 0.4830 0.4690
25.027000 0.4500 0.4390 0.4230 0.4120 0.4000
25.114721 0.3960 0.3870 0.3710 0.3550 0.3370
25.202000 0.3210 0.3070 0.2960 0.2920 0.2780
25.289721 0.2690 0.2640 0.2620 0.2530 0.2460
25.378000 0.2440 0.2350 0.2330 0.2330 0.2350
25.465721 0.2390 0.2440 0.2530 0.2620 0.2690
25.553000 0.2780 0.2870 0.3000 0.3120 0.3210
25.640721 0.3350 0.3460 0.3510 0.3670 0.3780
25.728000 0.3960 0.4100 0.4260 0.4390 0.4510
25.815721 0.4640 0.4760 0.4890 0.5000 0.5160
25.904000 0.5300 0.5420 0.5570 0.5710 0.5830
25.991721 0.5980 0.6100 0.6230 0.6330 0.6410
26.079000 0.6480 0.6500 0.6600 0.6690 0.6760
26.166721 0.6890 0.6940 0.6980 0.7010 0.7050
26.254000 0.7100 0.7140 0.7210 0.7260 0.7330
26.341721 0.7390 0.7460 0.7500 0.7530 0.7580
26.430000 0.7620 0.7640 0.7670 0.7710 0.7730
26.517721 0.7750 0.7750 0.7750 0.7760 0.7760
26.605000 0.7800 0.7850 0.7960 0.8000 0.8000
26.692721 0.8010 0.8030 0.8100 0.8120 0.8140
26.780000 0.8140 0.8170 0.8210 0.8260 0.8320
26.867721 0.8350 0.8370 0.8370 0.8390 0.8390
26.955000 0.8410 0.8420 0.8460 0.8480 0.8480
27.042721 0.8500 0.8500 0.8510 0.8510 0.8530
27.131000 0.8580 0.8600 0.8660 0.8710 0.8750
27.218721 0.8780 0.8780 0.8780 0.8800 0.8800
27.306000 0.8800 0.8800 0.8800 0.8820 0.8820
27.393721 0.8820 0.8830 0.8850 0.8870 0.8890
27.481000 0.8890 0.8890 0.8910 0.8920 0.8940
27.568721 0.8940 0.8960 0.8980 0.9000 0.9000
27.657000 0.9010 0.9010 0.9010 0.9010 0.9010
27.744721 0.9010 0.9030 0.9030 0.9030 0.9030
27.832000 0.9050 0.9050 0.9050 0.9050 0.9070
27.919721 0.9070 0.9070 0.9080 0.9080 0.9080
28.007000 0.9080 0.9080 0.9080 0.9080 0.9080
28.094721 0.9080 0.9080 0.9100 0.9100 0.9120
28.183000 0.9120 0.9140 0.9170 0.9190 0.9210
28.270721 0.9210 0.9230 0.9230 0.9230 0.9230
28.358000 0.9230 0.9230 0.9230 0.9230 0.9230
28.445721 0.9230 0.9230 0.9250 0.9250 0.9250
28.533000 0.9230 0.9230 0.9230 0.9210 0.9210
28.620721 0.9210 0.9210 0.9210 0.9210 0.9190
28.709000 0.9210 0.9210 0.9210 0.9210 0.9210
28.796721 0.9210 0.9230 0.9230 0.9230 0.9230
28.884000 0.9230 0.9230 0.9230 0.9230 0.9250
28.971721 0.9260 0.9260 0.9250 0.9250 0.9230
29.059000 0.9230 0.9210 0.9210 0.9210 0.9210
29.146721 0.9210 0.9210 0.9210 0.9210 0.9210
29.234000 0.9210 0.9210 0.9190 0.9190 0.9190
29.321721 0.9190 0.9190 0.9190 0.9190 0.9190
29.410000 0.9190 0.9170 0.9170 0.9170 0.9160
29.497721 0.9160 0.9140 0.9140 0.9120 0.9120
29.585000 0.9140 0.9140 0.9140 0.9140 0.9120
29.672721 0.9120 0.9120 0.9120 0.9100 0.9100
29.760000 0.9100 0.9080 0.9070 0.9030 0.9010
29.847721 0.9010 0.9000 0.8980 0.8980 0.8960
29.936000 0.8960 0.8940 0.8940 0.8910 0.8870
30.023721 0.8830 0.8830 0.8830 0.8820 0.8800
30.111000 0.8780 0.8760 0.8760 0.8760 0.8760
30.198721 0.8750 0.8730 0.8710 0.8690 0.8670
30.286000 0.8660 0.8660 0.8660 0.8640 0.8640
30.373721 0.8620 0.8620 0.8600 0.8570 0.8550
30.462000 0.8510 0.8500 0.8460 0.8410 0.8370
30.549721 0.8350 0.8320 0.8260 0.8140 0.8100
30.637000 0.8050 0.8030 0.8010 0.8000 0.7980
30.724721 0.7960 0.7920 0.7890 0.7870 0.7830
30.812000 0.7760 0.7710 0.7620 0.7420 0.7320
30.899721 0.7280 0.7250 0.7210 0.7120 0.7010
30.988000 0.6940 0.6850 0.6780 0.6780 0.6710
31.075721 0.6600 0.6500 0.6420 0.6330 0.6260
31.163000 0.6160 0.6080 0.6000 0.5940 0.5800
31.250721 0.5690 0.5600 0.5460 0.5350 0.5230
31.338000 0.5050 0.4960 0.4890 0.4780 0.4690
31.425721 0.4580 0.4510 0.4480 0.4410 0.4300
31.514000 0.4190 0.4140 0.4100 0.4070 0.4010
31.601721 0.4000 0.3960 0.3940 0.3910 0.3830
31.689000 0.3800 0.3780 0.3760 0.3750 0.3750
31.776721 0.3730 0.3730 0.3750 0.3760 0.3780
31.864000 0.3780 0.3800 0.3800 0.3820 0.3830
31.951721 0.3870 0.3920 0.4000 0.4070 0.4160
32.039000 0.4250 0.4330 0.4410 0.4440 0.4500
32.126721 0.4510 0.4580 0.4660 0.4690 0.4710
32.215000 0.4750 0.4780 0.4870 0.4980 0.5050
32.302721 0.5250 0.5330 0.5390 0.5440 0.5480
32.390000 0.5530 0.5640 0.5710 0.5760 0.5830
32.477721 0.5870 0.5920 0.5960 0.6030 0.6080
32.565000 0.6120 0.6170 0.6230 0.6280 0.6370
32.652721 0.6460 0.6480 0.6500 0.6570 0.6620
32.741000 0.6660 0.6710 0.6780 0.6820 0.6850
32.828721 0.6890 0.6920 0.6960 0.6980 0.7000
32.916000 0.7010 0.7030 0.7050 0.7050 0.7070
33.003721 0.7070 0.7070 0.7050 0.7050 0.7030
33.091000 0.7030 0.7030 0.7010 0.7010 0.7010
33.178721 0.7000 0.7000 0.7000 0.7000 0.7010
33.267000 0.7010 0.7030 0.7030 0.7070 0.7100
33.354721 0.7120 0.7140 0.7160 0.7170 0.7250
33.442000 0.7300 0.7320 0.7330 0.7350 0.7370
33.529721 0.7370 0.7390 0.7390 0.7410 0.7420
33.617000 0.7420 0.7440 0.7440 0.7460 0.7460
33.704721 0.7480 0.7480 0.7500 0.7500 0.7500
33.793000 0.7500 0.7500 0.7500 0.7500 0.7500
33.880721 0.7500 0.7480 0.7480 0.7480 0.7460
33.968000 0.7460 0.7440 0.7440 0.7440 0.7440
34.055721 0.7460 0.7460 0.7480 0.7480 0.7480
34.143000 0.7480 0.7460 0.7460 0.7460 0.7460
34.230721 0.7460 0.7460 0.7460 0.7480 0.7480
34.318000 0.7480 0.7500 0.7510 0.7510 0.7510
34.405721 0.7500 0.7480 0.7480 0.7440 0.7420
34.494000 0.7410 0.7370 0.7350 0.7350 0.7330
34.581721 0.7330 0.7330 0.7330 0.7320 0.7320
34.669000 0.7300 0.7280 0.7280 0.7260 0.7250
34.756721 0.7230 0.7230 0.7210 0.7190 0.7170
34.844000 0.7170 0.7160 0.7140 0.7120 0.7120
34.931721 0.7140 0.7140 0.7160 0.7160 0.7160
35.020000 0.7160 0.7140 0.7140 0.7140 0.7120
35.107721 0.7120 0.7100 0.7100 0.7100 0.7100
35.195000 0.7100 0.7120 0.7120 0.7120 0.7100
35.282721 0.7100 0.7070 0.7070 0.7070 0.7030
35.370000 0.7030 0.7010 0.7000 0.7000 0.6980
35.457721 0.6980 0.6960 0.6940 0.6910 0.6870
35.546000 0.6870 0.6830 0.6820 0.6800 0.6780
35.633721 0.6760 0.6750 0.6730 0.6730 0.6750
35.721000 0.6800 0.6910 0.6910 0.6850 0.6830
35.808721 0.6830 0.6820 0.6800 0.6800 0.6780
35.896000 0.6760 0.6760 0.6760 0.6760 0.6760
35.983721 0.6750 0.6730 0.6710 0.6690 0.6670
36.072000 0.6660 0.6660 0.6660 0.6660 0.6640
36.159721 0.6640 0.6640 0.6620 0.6620 0.6600
36.247000 0.6600 0.6600 0.6600 0.6600 0.6600
36.334721 0.6600 0.6600 0.6600 0.6580 0.6580
36.422000 0.6580 0.6570 0.6570 0.6570 0.6550
36.509721 0.6550 0.6550 0.6550 0.6550 0.6550
36.598000 0.6550 0.6550 0.6550 0.6550 0.6550
36.685721 0.6550 0.6550 0.6550 0.6530 0.6510
36.773000 0.6510 0.6510 0.6510 0.6510 0.6510
36.860721 0.6510 0.6510 0.6510 0.6510 0.6510
36.948000 0.6510 0.6510 0.6510 0.6530 0.6530
37.035721 0.6530 0.6530 0.6530 0.6530 0.6510
37.123000 0.6510 0.6510 0.6510 0.6510 0.6510
37.210721 0.6510 0.6530 0.6550 0.6550 0.6550
37.299000 0.6570 0.6570 0.6550 0.6530 0.6530
37.386721 0.6530 0.6550 0.6550 0.6550 0.6570
37.474000 0.6570 0.6570 0.6550 0.6530 0.6530
37.561721 0.6530 0.6530 0.6530 0.6530 0.6530
37.649000 0.6530 0.6530 0.6530 0.6530 0.6530
37.736721 0.6530 0.6530 0.6530 0.6510 0.6510
37.825000 0.6500 0.6500 0.6500 0.6500 0.6500
37.912721 0.6500 0.6500 0.6500 0.6500 0.6500
##END=
