##TITLE=1,1-DICHLOROPROPENE
##JCAMP-DX=4.24
##DATA TYPE=INFRARED SPECTRUM
##CLASS=COBLENTZ
##ORIGIN=W.T. BOLLETER
##OWNER=COBLENTZ SOCIETY
Collection (C) 2018 copyright by the U.S. Secretary of Commerce
on behalf of the United States of America. All rights reserved.
##DATE=Not specified, most likely prior to 1970
##NAMES=1,1-dichloro-1-propene
##CAS REGISTRY NO=563-58-6
##MOLFORM=C3 H4 Cl2
##SOURCE REFERENCE=COBLENTZ NO. 4487
##$NIST SOURCE=COBLENTZ
##$NIST IMAGE=cob4487
##SPECTROMETER/DATA SYSTEM=Not specified, most likely a prism, grating, or hybrid spectrometer.
##PATH LENGTH=0.0025 CM
##SAMPLING PROCEDURE=TRANSMISSION
##RESOLUTION=4
##DATA PROCESSING=DIGITIZED BY NIST FROM HARD COPY
##XUNITS=MICROMETERS
##YUNITS=TRANSMITTANCE
##XFACTOR=1.000000
##YFACTOR=1
##DELTAX=000.017480
##FIRSTX=14.507
##LASTX=37.965
##FIRSTY=0.491
##MAXX=37.965
##MINX=14.507
##MAXY=0.976
##MINY=0.028
##NPOINTS=1343
##XYDATA=(X++(Y..Y))
14.507000 0.4910 0.4920 0.4940 0.4980 0.5000
14.594465 0.5170 0.5280 0.5410 0.5500 0.5620
14.682000 0.5780 0.5850 0.6000 0.6120 0.6210
14.769465 0.6330 0.6410 0.6480 0.6510 0.6600
14.857000 0.6640 0.6670 0.6760 0.6850 0.6960
14.944465 0.6980 0.7000 0.7030 0.7080 0.7170
15.031000 0.7230 0.7260 0.7300 0.7320 0.7320
15.118465 0.7320 0.7300 0.7300 0.7280 0.7260
15.206000 0.7260 0.7250 0.7250 0.7250 0.7250
15.293465 0.7260 0.7280 0.7320 0.7370 0.7480
15.381000 0.7500 0.7510 0.7570 0.7580 0.7580
15.468465 0.7600 0.7620 0.7640 0.7660 0.7660
15.556000 0.7660 0.7660 0.7660 0.7640 0.7640
15.643465 0.7640 0.7640 0.7620 0.7620 0.7620
15.731000 0.7600 0.7600 0.7580 0.7530 0.7510
15.818465 0.7480 0.7480 0.7440 0.7410 0.7390
15.905000 0.7350 0.7280 0.7260 0.7230 0.7170
15.992465 0.7120 0.7050 0.6960 0.6910 0.6820
16.080000 0.6750 0.6690 0.6600 0.6500 0.6410
16.167465 0.6350 0.6260 0.6160 0.6010 0.5870
16.255000 0.5730 0.5510 0.5410 0.5210 0.5000
16.342465 0.4850 0.4580 0.4410 0.4190 0.3980
16.430000 0.3730 0.3440 0.3080 0.2870 0.2620
16.517465 0.2330 0.2070 0.1780 0.1510 0.1280
16.605000 0.1080 0.0940 0.0780 0.0620 0.0550
16.692465 0.0480 0.0420 0.0390 0.0350 0.0330
16.779000 0.0300 0.0280 0.0300 0.0320 0.0330
16.866465 0.0370 0.0390 0.0460 0.0500 0.0530
16.954000 0.0600 0.0750 0.0940 0.1190 0.1480
17.041465 0.1800 0.2140 0.2480 0.2820 0.3160
17.129000 0.3460 0.3730 0.3960 0.4120 0.4440
17.216465 0.4620 0.4800 0.4980 0.5070 0.5230
17.304000 0.5370 0.5500 0.5600 0.5730 0.5850
17.391465 0.5980 0.6070 0.6190 0.6260 0.6350
17.479000 0.6460 0.6530 0.6640 0.6690 0.6730
17.566465 0.6820 0.6960 0.7000 0.7010 0.7080
17.653000 0.7120 0.7230 0.7300 0.7350 0.7420
17.740465 0.7500 0.7510 0.7570 0.7620 0.7660
17.828000 0.7670 0.7690 0.7730 0.7760 0.7780
17.915465 0.7820 0.7830 0.7830 0.7850 0.7850
18.003000 0.7830 0.7820 0.7820 0.7800 0.7780
18.090465 0.7760 0.7750 0.7710 0.7670 0.7670
18.178000 0.7660 0.7660 0.7660 0.7660 0.7660
18.265465 0.7640 0.7640 0.7640 0.7640 0.7640
18.353000 0.7660 0.7670 0.7730 0.7750 0.7760
18.440465 0.7780 0.7820 0.7850 0.7920 0.7980
18.527000 0.8010 0.8030 0.8080 0.8140 0.8170
18.614465 0.8210 0.8230 0.8250 0.8280 0.8300
18.702000 0.8320 0.8330 0.8370 0.8390 0.8410
18.789465 0.8410 0.8420 0.8420 0.8440 0.8460
18.877000 0.8460 0.8460 0.8460 0.8480 0.8480
18.964465 0.8480 0.8480 0.8480 0.8480 0.8480
19.052000 0.8480 0.8480 0.8480 0.8480 0.8480
19.139465 0.8480 0.8480 0.8480 0.8480 0.8480
19.227000 0.8480 0.8480 0.8480 0.8460 0.8460
19.314465 0.8460 0.8440 0.8440 0.8440 0.8420
19.401000 0.8420 0.8410 0.8410 0.8390 0.8390
19.488465 0.8370 0.8320 0.8300 0.8300 0.8300
19.576000 0.8300 0.8300 0.8300 0.8280 0.8260
19.663465 0.8260 0.8260 0.8260 0.8260 0.8260
19.751000 0.8260 0.8260 0.8260 0.8260 0.8260
19.838465 0.8260 0.8260 0.8260 0.8250 0.8230
19.926000 0.8230 0.8230 0.8210 0.8210 0.8210
20.013465 0.8190 0.8190 0.8170 0.8170 0.8170
20.101000 0.8160 0.8140 0.8120 0.8100 0.8080
20.188465 0.8070 0.8050 0.8030 0.8010 0.8010
20.275000 0.8010 0.8000 0.8000 0.7980 0.7960
20.362465 0.7910 0.7870 0.7870 0.7850 0.7830
20.450000 0.7800 0.7780 0.7750 0.7710 0.7660
20.537465 0.7620 0.7600 0.7570 0.7570 0.7500
20.625000 0.7480 0.7440 0.7420 0.7390 0.7350
20.712465 0.7320 0.7250 0.7190 0.7140 0.7100
20.800000 0.7050 0.7010 0.7000 0.6910 0.6830
20.887465 0.6780 0.6750 0.6690 0.6640 0.6550
20.975000 0.6480 0.6420 0.6350 0.6300 0.6230
21.062465 0.6140 0.6050 0.6000 0.5890 0.5820
21.149000 0.5730 0.5620 0.5480 0.5350 0.5260
21.236465 0.5120 0.5010 0.4920 0.4830 0.4730
21.324000 0.4580 0.4440 0.4300 0.4170 0.4030
21.411465 0.3870 0.3730 0.3550 0.3350 0.3170
21.499000 0.3000 0.2820 0.2620 0.2420 0.2210
21.586465 0.2050 0.1960 0.1760 0.1640 0.1480
21.674000 0.1320 0.1080 0.1000 0.0980 0.0850
21.761465 0.0710 0.0530 0.0500 0.0440 0.0420
21.849000 0.0410 0.0390 0.0370 0.0350 0.0350
21.936465 0.0330 0.0330 0.0330 0.0330 0.0350
22.023000 0.0350 0.0370 0.0370 0.0390 0.0410
22.110465 0.0410 0.0420 0.0440 0.0440 0.0460
22.198000 0.0480 0.0480 0.0480 0.0480 0.0480
22.285465 0.0500 0.0500 0.0500 0.0500 0.0500
22.373000 0.0480 0.0480 0.0480 0.0460 0.0460
22.460465 0.0440 0.0440 0.0420 0.0420 0.0420
22.548000 0.0420 0.0440 0.0440 0.0460 0.0460
22.635465 0.0460 0.0460 0.0480 0.0480 0.0500
22.723000 0.0500 0.0510 0.0510 0.0530 0.0550
22.810465 0.0570 0.0600 0.0640 0.0660 0.0710
22.897000 0.0780 0.0850 0.0910 0.0960 0.1030
22.984465 0.1080 0.1160 0.1230 0.1300 0.1370
23.072000 0.1460 0.1550 0.1640 0.1730 0.1820
23.159465 0.1940 0.2030 0.2140 0.2250 0.2370
23.247000 0.2480 0.2550 0.2690 0.2800 0.2910
23.334465 0.3000 0.3050 0.3190 0.3330 0.3480
23.422000 0.3550 0.3670 0.3830 0.3980 0.4100
23.509465 0.4230 0.4350 0.4500 0.4570 0.4730
23.597000 0.4870 0.5000 0.5070 0.5170 0.5260
23.684465 0.5390 0.5510 0.5550 0.5670 0.5780
23.771000 0.5850 0.5980 0.6050 0.6210 0.6320
23.858465 0.6410 0.6500 0.6570 0.6640 0.6690
23.946000 0.6730 0.6780 0.6850 0.6940 0.7070
24.033465 0.7120 0.7170 0.7250 0.7300 0.7350
24.121000 0.7440 0.7510 0.7510 0.7530 0.7570
24.208465 0.7570 0.7620 0.7660 0.7670 0.7690
24.296000 0.7730 0.7760 0.7800 0.7820 0.7830
24.383465 0.7850 0.7870 0.7870 0.7890 0.7920
24.471000 0.7960 0.7960 0.7980 0.8000 0.8000
24.558465 0.8010 0.8010 0.8030 0.8030 0.8050
24.645000 0.8050 0.8050 0.8070 0.8070 0.8070
24.732465 0.8080 0.8080 0.8080 0.8100 0.8100
24.820000 0.8100 0.8120 0.8120 0.8140 0.8140
24.907465 0.8140 0.8160 0.8160 0.8160 0.8170
24.995000 0.8170 0.8170 0.8190 0.8190 0.8210
25.082465 0.8210 0.8210 0.8230 0.8230 0.8230
25.170000 0.8250 0.8250 0.8250 0.8260 0.8260
25.257465 0.8260 0.8280 0.8300 0.8300 0.8300
25.345000 0.8320 0.8320 0.8320 0.8320 0.8320
25.432465 0.8320 0.8330 0.8330 0.8330 0.8350
25.519000 0.8350 0.8350 0.8370 0.8370 0.8390
25.606465 0.8410 0.8410 0.8420 0.8440 0.8460
25.694000 0.8460 0.8460 0.8460 0.8460 0.8480
25.781465 0.8480 0.8480 0.8480 0.8480 0.8480
25.869000 0.8480 0.8480 0.8480 0.8480 0.8480
25.956465 0.8500 0.8500 0.8500 0.8500 0.8500
26.044000 0.8500 0.8500 0.8500 0.8500 0.8500
26.131465 0.8500 0.8500 0.8500 0.8500 0.8500
26.219000 0.8510 0.8510 0.8530 0.8530 0.8550
26.306465 0.8550 0.8570 0.8570 0.8580 0.8600
26.393000 0.8600 0.8620 0.8620 0.8620 0.8640
26.480465 0.8640 0.8660 0.8670 0.8670 0.8670
26.568000 0.8690 0.8690 0.8690 0.8690 0.8690
26.655465 0.8690 0.8690 0.8690 0.8670 0.8670
26.743000 0.8670 0.8670 0.8670 0.8670 0.8670
26.830465 0.8670 0.8660 0.8660 0.8670 0.8690
26.918000 0.8730 0.8760 0.8800 0.8850 0.8910
27.005465 0.8920 0.8920 0.8940 0.8940 0.8920
27.092000 0.8910 0.8870 0.8830 0.8800 0.8800
27.179465 0.8780 0.8780 0.8780 0.8800 0.8820
27.267000 0.8830 0.8850 0.8850 0.8850 0.8850
27.354465 0.8850 0.8850 0.8850 0.8870 0.8870
27.442000 0.8870 0.8870 0.8890 0.8890 0.8910
27.529465 0.8910 0.8920 0.8920 0.8920 0.8920
27.617000 0.8920 0.8940 0.8940 0.8940 0.8940
27.704465 0.8960 0.8960 0.8960 0.8980 0.8980
27.792000 0.8980 0.9000 0.9000 0.9010 0.9010
27.879465 0.9010 0.9010 0.9010 0.9010 0.9010
27.966000 0.9010 0.9010 0.9030 0.9030 0.9030
28.053465 0.9030 0.9030 0.9030 0.9050 0.9050
28.141000 0.9050 0.9070 0.9070 0.9070 0.9070
28.228465 0.9070 0.9070 0.9070 0.9070 0.9070
28.316000 0.9050 0.9050 0.9050 0.9050 0.9050
28.403465 0.9050 0.9050 0.9050 0.9050 0.9050
28.491000 0.9030 0.9010 0.9010 0.9010 0.9000
28.578465 0.9000 0.9000 0.9000 0.9000 0.9000
28.666000 0.9000 0.9000 0.9000 0.9000 0.9000
28.753465 0.9000 0.9000 0.9000 0.9010 0.9010
28.840000 0.9010 0.9010 0.9010 0.9030 0.9030
28.927465 0.9050 0.9050 0.9070 0.9080 0.9080
29.015000 0.9100 0.9120 0.9160 0.9170 0.9170
29.102465 0.9190 0.9190 0.9190 0.9190 0.9190
29.190000 0.9190 0.9190 0.9190 0.9190 0.9190
29.277465 0.9190 0.9190 0.9170 0.9160 0.9140
29.365000 0.9120 0.9120 0.9120 0.9120 0.9120
29.452465 0.9140 0.9160 0.9160 0.9160 0.9170
29.540000 0.9170 0.9170 0.9170 0.9170 0.9170
29.627465 0.9170 0.9170 0.9190 0.9190 0.9190
29.714000 0.9190 0.9190 0.9190 0.9170 0.9160
29.801465 0.9120 0.9120 0.9120 0.9100 0.9080
29.889000 0.9080 0.9070 0.9070 0.9070 0.9080
29.976465 0.9080 0.9100 0.9100 0.9100 0.9120
30.064000 0.9120 0.9160 0.9170 0.9210 0.9230
30.151465 0.9250 0.9260 0.9300 0.9330 0.9330
30.239000 0.9350 0.9370 0.9390 0.9390 0.9410
30.326465 0.9390 0.9390 0.9390 0.9390 0.9370
30.414000 0.9370 0.9350 0.9320 0.9280 0.9230
30.501465 0.9170 0.9160 0.9140 0.9120 0.9120
30.588000 0.9100 0.9100 0.9100 0.9100 0.9120
30.675465 0.9140 0.9160 0.9170 0.9190 0.9190
30.763000 0.9210 0.9210 0.9190 0.9160 0.9160
30.850465 0.9140 0.9120 0.9100 0.9080 0.9070
30.938000 0.9070 0.9050 0.9030 0.9030 0.9030
31.025465 0.9030 0.9030 0.9050 0.9070 0.9070
31.113000 0.9080 0.9100 0.9120 0.9140 0.9160
31.200465 0.9170 0.9190 0.9210 0.9230 0.9250
31.288000 0.9250 0.9260 0.9260 0.9280 0.9300
31.375465 0.9300 0.9300 0.9320 0.9320 0.9300
31.462000 0.9300 0.9300 0.9300 0.9280 0.9280
31.549465 0.9280 0.9260 0.9260 0.9260 0.9260
31.637000 0.9260 0.9250 0.9250 0.9250 0.9250
31.724465 0.9230 0.9230 0.9210 0.9210 0.9230
31.812000 0.9230 0.9210 0.9210 0.9230 0.9230
31.899465 0.9210 0.9210 0.9190 0.9170 0.9170
31.987000 0.9170 0.9190 0.9190 0.9210 0.9210
32.074465 0.9230 0.9230 0.9230 0.9230 0.9250
32.162000 0.9250 0.9230 0.9210 0.9210 0.9210
32.249465 0.9210 0.9210 0.9230 0.9250 0.9250
32.336000 0.9260 0.9260 0.9280 0.9280 0.9300
32.423465 0.9300 0.9300 0.9300 0.9300 0.9300
32.511000 0.9320 0.9350 0.9370 0.9390 0.9410
32.598465 0.9410 0.9420 0.9440 0.9500 0.9530
32.686000 0.9570 0.9580 0.9600 0.9620 0.9660
32.773465 0.9710 0.9730 0.9750 0.9760 0.9760
32.861000 0.9760 0.9760 0.9750 0.9730 0.9670
32.948465 0.9580 0.9570 0.9500 0.9350 0.9300
33.036000 0.9260 0.9190 0.9070 0.9030 0.9010
33.123465 0.9000 0.8920 0.8890 0.8870 0.8850
33.210000 0.8850 0.8830 0.8830 0.8850 0.8870
33.297465 0.8910 0.8940 0.8960 0.8980 0.9010
33.385000 0.9030 0.9050 0.9080 0.9100 0.9120
33.472465 0.9140 0.9140 0.9120 0.9100 0.9100
33.560000 0.9100 0.9100 0.9080 0.9080 0.9080
33.647465 0.9080 0.9050 0.9050 0.9030 0.9010
33.735000 0.9000 0.8920 0.8850 0.8800 0.8800
33.822465 0.8800 0.8780 0.8760 0.8730 0.8710
33.910000 0.8690 0.8670 0.8660 0.8620 0.8600
33.997465 0.8570 0.8530 0.8500 0.8480 0.8460
34.084000 0.8440 0.8420 0.8390 0.8330 0.8300
34.171465 0.8280 0.8280 0.8260 0.8260 0.8260
34.259000 0.8260 0.8260 0.8260 0.8250 0.8250
34.346465 0.8250 0.8210 0.8210 0.8190 0.8170
34.434000 0.8170 0.8170 0.8160 0.8140 0.8140
34.521465 0.8140 0.8140 0.8160 0.8160 0.8160
34.609000 0.8160 0.8160 0.8170 0.8170 0.8190
34.696465 0.8190 0.8210 0.8210 0.8230 0.8260
34.784000 0.8300 0.8330 0.8410 0.8440 0.8500
34.871465 0.8500 0.8510 0.8530 0.8550 0.8580
34.958000 0.8620 0.8660 0.8690 0.8730 0.8760
35.045465 0.8780 0.8800 0.8820 0.8830 0.8870
35.133000 0.8910 0.8920 0.8980 0.9000 0.9010
35.220465 0.9010 0.9030 0.9050 0.9050 0.9080
35.308000 0.9100 0.9120 0.9120 0.9120 0.9120
35.395465 0.9100 0.9100 0.9100 0.9080 0.9080
35.483000 0.9050 0.9030 0.9030 0.9030 0.9030
35.570465 0.9030 0.9010 0.9000 0.8980 0.8980
35.658000 0.9000 0.9010 0.9010 0.9010 0.9030
35.745465 0.9030 0.9030 0.9030 0.9050 0.9050
35.832000 0.9050 0.9030 0.9010 0.9010 0.9010
35.919465 0.9000 0.8980 0.8980 0.8940 0.8920
36.007000 0.8890 0.8850 0.8820 0.8780 0.8730
36.094465 0.8730 0.8710 0.8710 0.8730 0.8730
36.182000 0.8730 0.8730 0.8710 0.8710 0.8710
36.269465 0.8710 0.8730 0.8760 0.8760 0.8760
36.357000 0.8760 0.8780 0.8780 0.8750 0.8730
36.444465 0.8710 0.8710 0.8710 0.8750 0.8800
36.532000 0.8830 0.8830 0.8830 0.8830 0.8820
36.619465 0.8820 0.8820 0.8820 0.8800 0.8800
36.706000 0.8800 0.8780 0.8780 0.8760 0.8750
36.793465 0.8710 0.8690 0.8690 0.8690 0.8670
36.881000 0.8670 0.8660 0.8660 0.8660 0.8640
36.968465 0.8620 0.8620 0.8600 0.8580 0.8570
37.056000 0.8570 0.8550 0.8530 0.8530 0.8530
37.143465 0.8530 0.8510 0.8510 0.8510 0.8500
37.231000 0.8500 0.8480 0.8480 0.8480 0.8460
37.318465 0.8440 0.8420 0.8410 0.8410 0.8390
37.406000 0.8370 0.8330 0.8330 0.8320 0.8300
37.493465 0.8280 0.8260 0.8230 0.8190 0.8140
37.580000 0.8120 0.8100 0.8080 0.8050 0.8050
37.667465 0.8030 0.8030 0.8000 0.8000 0.7960
37.755000 0.7940 0.7910 0.7870 0.7850 0.7830
37.842465 0.7800 0.7750 0.7690 0.7620 0.7580
37.930000 0.7530 0.7510 0.7510
##END=
