##TITLE=TRIMETHYLBORANE
##JCAMP-DX=4.24
##DATA TYPE=INFRARED SPECTRUM
##CLASS=COBLENTZ
##ORIGIN=KALLERY CHEMICAL COMPANY
##OWNER=COBLENTZ SOCIETY
Collection (C) 2018 copyright by the U.S. Secretary of Commerce
on behalf of the United States of America. All rights reserved.
##DATE=1960
##CAS REGISTRY NO=593-90-8
##MOLFORM=C3 H9 B
##SOURCE REFERENCE=COBLENTZ NO. 832
##$NIST SOURCE=COBLENTZ
##$NIST IMAGE=cob832
##SPECTROMETER/DATA SYSTEM=Not specified, most likely a prism, grating, or hybrid spectrometer.
##STATE=VAPOR AT 30 mmHg PRESSURE; $$ RESEARCH PURITY
##PATH LENGTH=10 CM
##SAMPLING PROCEDURE=TRANSMISSION
##RESOLUTION=4
##DATA PROCESSING=DIGITIZED BY NIST FROM HARD COPY
##XUNITS=MICROMETERS
##YUNITS=TRANSMITTANCE
##XFACTOR=1.000000
##YFACTOR=1
##DELTAX=000.007143
##FIRSTX=2
##LASTX=15.6353
##FIRSTY=0.504
##MAXX=15.6353
##MINX=2
##MAXY=0.712
##MINY=0.001
##NPOINTS=1910
##XYDATA=(X++(Y..Y))
2.000000 0.5040 0.5040 0.5040 0.5040 0.5040
2.035733 0.5040 0.5040 0.5040 0.5060 0.5070
2.071000 0.5070 0.5090 0.5090 0.5110 0.5110
2.106733 0.5110 0.5110 0.5130 0.5130 0.5140
2.143000 0.5140 0.5140 0.5160 0.5160 0.5180
2.178733 0.5180 0.5200 0.5200 0.5220 0.5220
2.214000 0.5220 0.5220 0.5220 0.5220 0.5230
2.249733 0.5230 0.5230 0.5230 0.5230 0.5230
2.286000 0.5230 0.5250 0.5250 0.5250 0.5270
2.321733 0.5270 0.5270 0.5270 0.5270 0.5270
2.357000 0.5270 0.5290 0.5290 0.5290 0.5290
2.392733 0.5290 0.5290 0.5290 0.5300 0.5300
2.429000 0.5300 0.5300 0.5300 0.5320 0.5320
2.464733 0.5320 0.5320 0.5340 0.5340 0.5360
2.500000 0.5370 0.5390 0.5410 0.5430 0.5440
2.535733 0.5480 0.5520 0.5530 0.5530 0.5530
2.571000 0.5550 0.5550 0.5590 0.5590 0.5600
2.606733 0.5620 0.5620 0.5620 0.5640 0.5660
2.643000 0.5670 0.5670 0.5690 0.5690 0.5710
2.678733 0.5730 0.5730 0.5740 0.5740 0.5760
2.714000 0.5780 0.5780 0.5800 0.5800 0.5800
2.749733 0.5800 0.5820 0.5820 0.5820 0.5830
2.786000 0.5830 0.5830 0.5830 0.5870 0.5870
2.821733 0.5870 0.5870 0.5870 0.5870 0.5890
2.857000 0.5890 0.5890 0.5890 0.5900 0.5900
2.892733 0.5900 0.5920 0.5900 0.5900 0.5900
2.929000 0.5900 0.5890 0.5890 0.5890 0.5870
2.964733 0.5870 0.5870 0.5850 0.5870 0.5850
3.000000 0.5850 0.5830 0.5830 0.5820 0.5820
3.035733 0.5820 0.5820 0.5820 0.5800 0.5800
3.071000 0.5800 0.5800 0.5800 0.5800 0.5800
3.106733 0.5800 0.5800 0.5780 0.5760 0.5760
3.143000 0.5740 0.5710 0.5690 0.5640 0.5600
3.178733 0.5550 0.5480 0.5410 0.5340 0.5270
3.214000 0.5180 0.5020 0.4740 0.4530 0.4300
3.249733 0.4120 0.3930 0.3580 0.3030 0.2730
3.286000 0.2310 0.1860 0.1780 0.1580 0.1510
3.321733 0.1340 0.1250 0.1250 0.1300 0.1340
3.357000 0.1420 0.1530 0.1670 0.1720 0.1780
3.392733 0.1850 0.1900 0.1920 0.2060 0.2110
3.429000 0.2220 0.2340 0.2780 0.3010 0.3220
3.464733 0.3450 0.3560 0.3770 0.3980 0.4370
3.500000 0.4490 0.4580 0.4690 0.4830 0.5000
3.535733 0.5160 0.5250 0.5340 0.5410 0.5480
3.571000 0.5500 0.5570 0.5620 0.5660 0.5730
3.606733 0.5780 0.5820 0.5830 0.5850 0.5870
3.643000 0.5870 0.5890 0.5900 0.5920 0.5940
3.678733 0.5970 0.6030 0.6040 0.6040 0.6060
3.714000 0.6080 0.6080 0.6100 0.6100 0.6110
3.749733 0.6110 0.6110 0.6110 0.6110 0.6110
3.786000 0.6110 0.6110 0.6110 0.6110 0.6130
3.821733 0.6130 0.6130 0.6130 0.6150 0.6150
3.857000 0.6170 0.6170 0.6190 0.6190 0.6190
3.892733 0.6190 0.6200 0.6200 0.6220 0.6220
3.929000 0.6220 0.6240 0.6240 0.6240 0.6240
3.964733 0.6240 0.6240 0.6240 0.6220 0.6220
4.000000 0.6220 0.6240 0.6220 0.6220 0.6220
4.035733 0.6220 0.6220 0.6200 0.6200 0.6200
4.071000 0.6200 0.6200 0.6200 0.6220 0.6240
4.106733 0.6240 0.6260 0.6270 0.6290 0.6310
4.143000 0.6330 0.6330 0.6340 0.6360 0.6380
4.178733 0.6400 0.6410 0.6410 0.6410 0.6410
4.214000 0.6430 0.6430 0.6450 0.6450 0.6450
4.249733 0.6470 0.6470 0.6490 0.6490 0.6490
4.286000 0.6490 0.6500 0.6500 0.6520 0.6520
4.321733 0.6520 0.6520 0.6500 0.6520 0.6520
4.357000 0.6520 0.6520 0.6520 0.6520 0.6500
4.392733 0.6500 0.6500 0.6500 0.6500 0.6500
4.429000 0.6500 0.6500 0.6500 0.6500 0.6500
4.464733 0.6500 0.6500 0.6490 0.6490 0.6490
4.500000 0.6490 0.6490 0.6490 0.6490 0.6470
4.535733 0.6470 0.6470 0.6470 0.6450 0.6450
4.571000 0.6430 0.6410 0.6400 0.6400 0.6380
4.606733 0.6380 0.6400 0.6400 0.6400 0.6410
4.643000 0.6410 0.6430 0.6430 0.6450 0.6470
4.678733 0.6470 0.6470 0.6490 0.6490 0.6490
4.714000 0.6490 0.6490 0.6490 0.6490 0.6500
4.749733 0.6500 0.6520 0.6520 0.6540 0.6540
4.786000 0.6570 0.6590 0.6610 0.6610 0.6630
4.821733 0.6630 0.6630 0.6630 0.6630 0.6630
4.857000 0.6610 0.6610 0.6610 0.6610 0.6610
4.892733 0.6610 0.6590 0.6590 0.6590 0.6590
4.929000 0.6590 0.6590 0.6590 0.6570 0.6570
4.964733 0.6570 0.6570 0.6560 0.6560 0.6560
5.000000 0.6540 0.6540 0.6540 0.6540 0.6540
5.035733 0.6540 0.6540 0.6540 0.6560 0.6560
5.071000 0.6560 0.6560 0.6560 0.6560 0.6560
5.106733 0.6570 0.6570 0.6590 0.6610 0.6610
5.143000 0.6630 0.6640 0.6640 0.6660 0.6660
5.178733 0.6660 0.6660 0.6680 0.6700 0.6710
5.214000 0.6730 0.6750 0.6750 0.6770 0.6770
5.249733 0.6770 0.6770 0.6790 0.6790 0.6790
5.286000 0.6790 0.6800 0.6800 0.6800 0.6800
5.321733 0.6820 0.6820 0.6820 0.6820 0.6840
5.357000 0.6840 0.6840 0.6840 0.6840 0.6840
5.392733 0.6870 0.6870 0.6860 0.6860 0.6860
5.429000 0.6860 0.6860 0.6860 0.6860 0.6860
5.464733 0.6860 0.6860 0.6870 0.6870 0.6870
5.500000 0.6870 0.6870 0.6870 0.6870 0.6870
5.535733 0.6870 0.6870 0.6890 0.6890 0.6890
5.571000 0.6910 0.6890 0.6890 0.6890 0.6890
5.606733 0.6890 0.6910 0.6910 0.6930 0.6930
5.643000 0.6930 0.6930 0.6940 0.6940 0.6940
5.678733 0.6940 0.6960 0.6960 0.6960 0.6940
5.714000 0.6940 0.6940 0.6940 0.6960 0.6960
5.749733 0.6980 0.6980 0.7000 0.7000 0.7030
5.786000 0.7030 0.7030 0.7030 0.7050 0.7050
5.821733 0.7050 0.7050 0.7070 0.7070 0.7070
5.857000 0.7070 0.7080 0.7080 0.7080 0.7080
5.892733 0.7080 0.7100 0.7100 0.7100 0.7100
5.929000 0.7100 0.7100 0.7100 0.7100 0.7100
5.964733 0.7100 0.7120 0.7120 0.7120 0.7120
6.000000 0.7120 0.7120 0.7120 0.7120 0.7120
6.035733 0.7120 0.7120 0.7100 0.7100 0.7100
6.071000 0.7080 0.7080 0.7070 0.7070 0.7070
6.106733 0.7070 0.7070 0.7050 0.7050 0.7030
6.143000 0.7030 0.7030 0.7010 0.7010 0.7010
6.178733 0.7000 0.7000 0.7000 0.6980 0.6980
6.214000 0.6980 0.6980 0.7000 0.6980 0.6980
6.249733 0.6980 0.6980 0.6980 0.6980 0.6980
6.286000 0.6980 0.6980 0.6980 0.6980 0.6960
6.321733 0.6960 0.6960 0.6960 0.6940 0.6940
6.357000 0.6940 0.6930 0.6930 0.6910 0.6910
6.392733 0.6860 0.6770 0.6750 0.6730 0.6730
6.429000 0.6730 0.6730 0.6750 0.6730 0.6730
6.464733 0.6710 0.6680 0.6610 0.6520 0.6520
6.500000 0.6500 0.6500 0.6500 0.6490 0.6490
6.535733 0.6470 0.6470 0.6430 0.6410 0.6400
6.571000 0.6340 0.6310 0.6290 0.6270 0.6220
6.606733 0.6200 0.6190 0.6170 0.6150 0.6130
6.643000 0.6080 0.6030 0.6010 0.6010 0.5990
6.678733 0.5970 0.5940 0.5900 0.5870 0.5850
6.714000 0.5820 0.5800 0.5760 0.5740 0.5730
6.749733 0.5710 0.5690 0.5670 0.5660 0.5640
6.786000 0.5640 0.5620 0.5600 0.5590 0.5570
6.821733 0.5570 0.5550 0.5550 0.5530 0.5530
6.857000 0.5530 0.5530 0.5530 0.5530 0.5530
6.892733 0.5530 0.5530 0.5530 0.5530 0.5530
6.929000 0.5530 0.5550 0.5550 0.5550 0.5570
6.964733 0.5570 0.5570 0.5590 0.5590 0.5590
7.000000 0.5590 0.5590 0.5590 0.5590 0.5590
7.035733 0.5590 0.5590 0.5570 0.5570 0.5550
7.071000 0.5530 0.5530 0.5520 0.5520 0.5520
7.106733 0.5500 0.5480 0.5460 0.5430 0.5410
7.143000 0.5410 0.5390 0.5370 0.5340 0.5320
7.178733 0.5290 0.5270 0.5250 0.5220 0.5200
7.214000 0.5110 0.5070 0.5040 0.5000 0.4970
7.249733 0.4920 0.4850 0.4790 0.4720 0.4650
7.286000 0.4560 0.4490 0.4400 0.4230 0.4160
7.321733 0.4090 0.4000 0.3980 0.3960 0.3840
7.357000 0.3730 0.3540 0.3400 0.3260 0.3100
7.392733 0.2960 0.2830 0.2690 0.2410 0.2310
7.429000 0.2200 0.2110 0.2010 0.2010 0.1990
7.464733 0.1850 0.1710 0.1550 0.1440 0.1320
7.500000 0.1210 0.1070 0.0950 0.0810 0.0720
7.535733 0.0580 0.0510 0.0420 0.0350 0.0290
7.571000 0.0240 0.0210 0.0190 0.0170 0.0120
7.606733 0.0100 0.0080 0.0070 0.0050 0.0050
7.643000 0.0050 0.0050 0.0030 0.0010 0.0010
7.678733 0.0010 0.0010 0.0010 0.0010 0.0010
7.714000 0.0010 0.0010 0.0030 0.0030 0.0050
7.749733 0.0050 0.0100 0.0140 0.0150 0.0240
7.786000 0.0310 0.0350 0.0490 0.0560 0.0790
7.821733 0.1560 0.1670 0.1790 0.1900 0.2680
7.857000 0.2760 0.2990 0.3380 0.3490 0.3660
7.892733 0.3730 0.3880 0.3980 0.4260 0.4400
7.929000 0.4690 0.4970 0.5040 0.5130 0.5160
7.964733 0.5250 0.5360 0.5430 0.5480 0.5550
8.000000 0.5640 0.5670 0.5730 0.5780 0.5780
8.035733 0.5820 0.5830 0.5870 0.5900 0.5920
8.071000 0.5960 0.5960 0.5970 0.6040 0.6060
8.106733 0.6100 0.6110 0.6130 0.6150 0.6170
8.143000 0.6190 0.6190 0.6190 0.6200 0.6200
8.178733 0.6200 0.6200 0.6200 0.6200 0.6200
8.214000 0.6200 0.6190 0.6190 0.6170 0.6150
8.249733 0.6150 0.6110 0.6080 0.6010 0.5990
8.286000 0.5970 0.5900 0.5820 0.5740 0.5640
8.321733 0.5520 0.5270 0.4770 0.4420 0.4050
8.357000 0.3820 0.3580 0.3060 0.2910 0.2730
8.392733 0.2590 0.2460 0.2450 0.2430 0.2430
8.429000 0.2430 0.2430 0.2380 0.2340 0.2310
8.464733 0.2200 0.2010 0.1920 0.1810 0.1690
8.500000 0.1560 0.1420 0.1320 0.1210 0.1140
8.535733 0.1050 0.0980 0.0860 0.0740 0.0540
8.571000 0.0470 0.0370 0.0280 0.0260 0.0210
8.606733 0.0170 0.0190 0.0190 0.0170 0.0170
8.643000 0.0170 0.0170 0.0170 0.0170 0.0170
8.678733 0.0170 0.0170 0.0190 0.0190 0.0190
8.714000 0.0210 0.0220 0.0260 0.0280 0.0310
8.749733 0.0420 0.0490 0.0560 0.0630 0.0770
8.786000 0.0880 0.1440 0.1780 0.3010 0.3100
8.821733 0.3330 0.3540 0.3700 0.3860 0.4120
8.857000 0.4250 0.4350 0.4460 0.4630 0.4720
8.892733 0.4810 0.4920 0.5040 0.5180 0.5300
8.929000 0.5440 0.5550 0.5620 0.5670 0.5740
8.964733 0.5820 0.5890 0.5970 0.5990 0.6080
9.000000 0.6110 0.6170 0.6200 0.6240 0.6260
9.035733 0.6270 0.6310 0.6360 0.6400 0.6410
9.071000 0.6450 0.6470 0.6490 0.6500 0.6500
9.106733 0.6520 0.6540 0.6560 0.6570 0.6590
9.143000 0.6610 0.6610 0.6630 0.6610 0.6610
9.178733 0.6610 0.6610 0.6610 0.6610 0.6610
9.214000 0.6610 0.6610 0.6610 0.6630 0.6630
9.249733 0.6630 0.6630 0.6630 0.6610 0.6610
9.286000 0.6610 0.6630 0.6640 0.6630 0.6630
9.321733 0.6630 0.6630 0.6630 0.6630 0.6630
9.357000 0.6630 0.6630 0.6630 0.6630 0.6630
9.392733 0.6630 0.6630 0.6630 0.6630 0.6630
9.429000 0.6640 0.6630 0.6630 0.6630 0.6630
9.464733 0.6630 0.6630 0.6630 0.6630 0.6630
9.500000 0.6630 0.6630 0.6630 0.6630 0.6630
9.535733 0.6630 0.6630 0.6630 0.6630 0.6630
9.571000 0.6630 0.6630 0.6630 0.6630 0.6630
9.606733 0.6630 0.6630 0.6610 0.6610 0.6610
9.643000 0.6610 0.6610 0.6590 0.6590 0.6590
9.678733 0.6570 0.6570 0.6570 0.6560 0.6520
9.714000 0.6520 0.6520 0.6520 0.6500 0.6490
9.749733 0.6490 0.6470 0.6470 0.6450 0.6450
9.786000 0.6430 0.6410 0.6410 0.6400 0.6400
9.821733 0.6380 0.6360 0.6340 0.6330 0.6290
9.857000 0.6270 0.6240 0.6200 0.6190 0.6150
9.892733 0.6100 0.6010 0.6010 0.5990 0.5960
9.929000 0.5870 0.5820 0.5740 0.5690 0.5640
9.964733 0.5590 0.5500 0.5480 0.5460 0.5430
10.000000 0.5370 0.5290 0.5220 0.5140 0.5070
10.035733 0.5020 0.4970 0.4880 0.4850 0.4770
10.071000 0.4700 0.4600 0.4530 0.4390 0.4280
10.106733 0.4160 0.4100 0.4030 0.4020 0.4000
10.143000 0.4000 0.3980 0.3960 0.3960 0.3930
10.178733 0.3930 0.3910 0.3890 0.3890 0.3890
10.214000 0.3890 0.3890 0.3890 0.3890 0.3880
10.249733 0.3880 0.3860 0.3840 0.3800 0.3790
10.286000 0.3730 0.3680 0.3650 0.3590 0.3560
10.321733 0.3520 0.3490 0.3470 0.3470 0.3450
10.357000 0.3450 0.3450 0.3450 0.3470 0.3490
10.392733 0.3590 0.3750 0.3820 0.3960 0.4170
10.429000 0.4230 0.4280 0.4330 0.4400 0.4460
10.464733 0.4490 0.4510 0.4600 0.4650 0.4700
10.500000 0.4810 0.4920 0.4990 0.5040 0.5070
10.535733 0.5130 0.5160 0.5200 0.5230 0.5290
10.571000 0.5320 0.5360 0.5370 0.5410 0.5460
10.606733 0.5480 0.5530 0.5600 0.5690 0.5710
10.643000 0.5760 0.5820 0.5870 0.5900 0.5940
10.678733 0.5960 0.5990 0.6080 0.6110 0.6130
10.714000 0.6170 0.6200 0.6220 0.6260 0.6270
10.749733 0.6310 0.6340 0.6360 0.6380 0.6400
10.786000 0.6400 0.6450 0.6470 0.6490 0.6500
10.821733 0.6520 0.6570 0.6590 0.6610 0.6610
10.857000 0.6640 0.6640 0.6660 0.6680 0.6700
10.892733 0.6710 0.6710 0.6710 0.6710 0.6730
10.929000 0.6730 0.6750 0.6750 0.6750 0.6750
10.964733 0.6770 0.6790 0.6790 0.6790 0.6800
11.000000 0.6800 0.6800 0.6820 0.6820 0.6840
11.035733 0.6840 0.6840 0.6840 0.6840 0.6860
11.071000 0.6860 0.6860 0.6870 0.6870 0.6890
11.106733 0.6890 0.6890 0.6910 0.6910 0.6930
11.143000 0.6940 0.6940 0.6940 0.6940 0.6940
11.178733 0.6940 0.6940 0.6940 0.6940 0.6940
11.214000 0.6940 0.6940 0.6940 0.6940 0.6940
11.249733 0.6940 0.6930 0.6890 0.6890 0.6890
11.286000 0.6870 0.6860 0.6860 0.6840 0.6820
11.321733 0.6820 0.6800 0.6790 0.6790 0.6770
11.357000 0.6750 0.6730 0.6730 0.6710 0.6700
11.392733 0.6680 0.6680 0.6660 0.6640 0.6630
11.429000 0.6610 0.6590 0.6570 0.6570 0.6560
11.464733 0.6540 0.6540 0.6540 0.6500 0.6500
11.500000 0.6500 0.6500 0.6500 0.6500 0.6490
11.535733 0.6490 0.6470 0.6470 0.6470 0.6470
11.571000 0.6470 0.6470 0.6450 0.6450 0.6450
11.606733 0.6450 0.6450 0.6450 0.6450 0.6450
11.643000 0.6450 0.6430 0.6430 0.6430 0.6430
11.678733 0.6410 0.6410 0.6410 0.6410 0.6410
11.714000 0.6410 0.6410 0.6410 0.6410 0.6410
11.749733 0.6410 0.6410 0.6410 0.6410 0.6410
11.786000 0.6430 0.6430 0.6430 0.6450 0.6450
11.821733 0.6450 0.6470 0.6470 0.6490 0.6490
11.857000 0.6500 0.6500 0.6500 0.6520 0.6560
11.892733 0.6560 0.6570 0.6570 0.6590 0.6610
11.929000 0.6610 0.6630 0.6630 0.6640 0.6640
11.964733 0.6660 0.6700 0.6700 0.6710 0.6710
12.000000 0.6750 0.6750 0.6750 0.6770 0.6770
12.035733 0.6770 0.6790 0.6790 0.6790 0.6800
12.071000 0.6800 0.6820 0.6820 0.6840 0.6840
12.106733 0.6860 0.6860 0.6860 0.6870 0.6870
12.143000 0.6870 0.6870 0.6870 0.6890 0.6890
12.178733 0.6890 0.6910 0.6910 0.6910 0.6930
12.214000 0.6930 0.6930 0.6940 0.6940 0.6960
12.249733 0.6960 0.6960 0.6960 0.6960 0.6960
12.286000 0.6960 0.6960 0.6960 0.6980 0.6980
12.321733 0.6980 0.6980 0.6980 0.6980 0.6980
12.357000 0.6980 0.6980 0.6980 0.6980 0.6980
12.392733 0.6960 0.6960 0.6980 0.7000 0.7000
12.429000 0.7000 0.7000 0.7000 0.7000 0.7000
12.464733 0.7000 0.7000 0.7010 0.7010 0.7010
12.500000 0.7010 0.7010 0.7010 0.7010 0.7010
12.535733 0.7000 0.7000 0.7000 0.7010 0.7010
12.571000 0.7030 0.7010 0.7010 0.7010 0.7010
12.606733 0.7010 0.7010 0.7010 0.7010 0.7010
12.643000 0.7010 0.7010 0.7010 0.7010 0.7010
12.678733 0.7010 0.7010 0.7010 0.7010 0.7010
12.714000 0.7010 0.7010 0.7010 0.7010 0.7010
12.749733 0.7010 0.7010 0.7010 0.7010 0.7010
12.786000 0.7010 0.7010 0.7010 0.7010 0.7010
12.821733 0.7010 0.7030 0.7030 0.7030 0.7030
12.857000 0.7030 0.7050 0.7050 0.7050 0.7050
12.892733 0.7050 0.7050 0.7050 0.7070 0.7070
12.929000 0.7070 0.7070 0.7070 0.7070 0.7070
12.964733 0.7070 0.7080 0.7080 0.7080 0.7080
13.000000 0.7080 0.7080 0.7080 0.7080 0.7080
13.035733 0.7080 0.7080 0.7080 0.7080 0.7100
13.071000 0.7100 0.7100 0.7100 0.7080 0.7080
13.106733 0.7080 0.7080 0.7080 0.7080 0.7080
13.143000 0.7080 0.7100 0.7100 0.7100 0.7100
13.178733 0.7100 0.7100 0.7100 0.7100 0.7100
13.214000 0.7100 0.7080 0.7080 0.7100 0.7100
13.249733 0.7100 0.7100 0.7080 0.7080 0.7080
13.286000 0.7080 0.7080 0.7100 0.7080 0.7080
13.321733 0.7080 0.7080 0.7080 0.7080 0.7070
13.357000 0.7070 0.7070 0.7070 0.7070 0.7070
13.392733 0.7070 0.7070 0.7070 0.7070 0.7070
13.429000 0.7070 0.7070 0.7050 0.7050 0.7050
13.464733 0.7050 0.7050 0.7050 0.7030 0.7030
13.500000 0.7030 0.7010 0.7000 0.7000 0.7000
13.535733 0.7000 0.7000 0.7000 0.7000 0.7000
13.571000 0.7000 0.7000 0.7000 0.7000 0.7000
13.606733 0.7000 0.7000 0.7000 0.7000 0.7000
13.643000 0.6980 0.6980 0.6980 0.6980 0.6960
13.678733 0.6960 0.6960 0.6960 0.6960 0.6960
13.714000 0.6960 0.6960 0.6960 0.6960 0.6960
13.749733 0.6960 0.6960 0.6960 0.6960 0.6960
13.786000 0.6940 0.6940 0.6960 0.6940 0.6940
13.821733 0.6940 0.6940 0.6940 0.6960 0.6960
13.857000 0.6960 0.6960 0.6960 0.6960 0.6960
13.892733 0.6960 0.6960 0.6960 0.6960 0.6960
13.929000 0.6960 0.6960 0.6960 0.6960 0.6940
13.964733 0.6940 0.6940 0.6940 0.6940 0.6930
14.000000 0.6930 0.6930 0.6930 0.6930 0.6930
14.035733 0.6930 0.6930 0.6910 0.6910 0.6910
14.071000 0.6890 0.6890 0.6890 0.6890 0.6870
14.106733 0.6870 0.6870 0.6860 0.6860 0.6860
14.143000 0.6860 0.6860 0.6840 0.6840 0.6840
14.178733 0.6840 0.6840 0.6840 0.6840 0.6840
14.214000 0.6820 0.6820 0.6820 0.6800 0.6800
14.249733 0.6800 0.6800 0.6800 0.6800 0.6790
14.286000 0.6790 0.6790 0.6790 0.6770 0.6770
14.321733 0.6770 0.6770 0.6770 0.6770 0.6770
14.357000 0.6770 0.6770 0.6770 0.6770 0.6770
14.392733 0.6750 0.6750 0.6750 0.6730 0.6730
14.429000 0.6730 0.6730 0.6730 0.6730 0.6730
14.464733 0.6730 0.6710 0.6700 0.6700 0.6700
14.500000 0.6700 0.6700 0.6700 0.6680 0.6680
14.535733 0.6680 0.6680 0.6680 0.6680 0.6660
14.571000 0.6660 0.6660 0.6660 0.6660 0.6640
14.606733 0.6640 0.6640 0.6640 0.6640 0.6640
14.643000 0.6640 0.6640 0.6640 0.6640 0.6640
14.678733 0.6640 0.6640 0.6630 0.6630 0.6630
14.714000 0.6630 0.6630 0.6630 0.6630 0.6610
14.749733 0.6610 0.6610 0.6610 0.6590 0.6590
14.786000 0.6590 0.6590 0.6590 0.6570 0.6570
14.821733 0.6570 0.6560 0.6560 0.6560 0.6560
14.857000 0.6560 0.6540 0.6520 0.6520 0.6520
14.892733 0.6520 0.6520 0.6500 0.6500 0.6490
14.929000 0.6490 0.6470 0.6470 0.6470 0.6450
14.964733 0.6450 0.6470 0.6470 0.6450 0.6430
15.000000 0.6430 0.6430 0.6430 0.6410 0.6400
15.035733 0.6400 0.6380 0.6360 0.6360 0.6360
15.071000 0.6340 0.6340 0.6340 0.6330 0.6330
15.106733 0.6330 0.6310 0.6310 0.6310 0.6310
15.143000 0.6290 0.6290 0.6290 0.6290 0.6290
15.178733 0.6290 0.6270 0.6270 0.6270 0.6270
15.214000 0.6260 0.6260 0.6260 0.6260 0.6260
15.249733 0.6260 0.6240 0.6240 0.6240 0.6240
15.286000 0.6240 0.6240 0.6240 0.6240 0.6240
15.321733 0.6240 0.6220 0.6220 0.6220 0.6220
15.357000 0.6220 0.6220 0.6220 0.6220 0.6220
15.392733 0.6200 0.6200 0.6200 0.6200 0.6200
15.429000 0.6200 0.6200 0.6190 0.6190 0.6190
15.464733 0.6190 0.6190 0.6190 0.6190 0.6170
15.500000 0.6170 0.6170 0.6170 0.6170 0.6170
15.535733 0.6170 0.6150 0.6150 0.6170 0.6170
15.571000 0.6170 0.6170 0.6170 0.6170 0.6170
15.606733 0.6170 0.6170 0.6170 0.6170 0.6170
##END=
