##TITLE=Vinyl iodide
##JCAMP-DX=4.24
##DATA TYPE=INFRARED SPECTRUM
##ORIGIN=EPA-IR VAPOR PHASE LIBRARY
##OWNER=SRD/NIST
Collection (C) 2018 copyright by the U.S. Secretary of Commerce
on behalf of the United States of America. All rights reserved.
##CAS REGISTRY NO=593-66-8
##MOLFORM=C 2 H 3 I
##$NIST SOURCE=MSDC-IR
##STATE=gas
##XUNITS=1/CM
##YUNITS=ABSORBANCE
##XFACTOR=1.
##YFACTOR=0.001
##DELTAX=1.92898
##FIRSTX=549.8
##LASTX=4000.7
##FIRSTY=5.98
##MAXX=4000.7
##MINX=549.759
##MAXY=0.0183
##MINY=0
##NPOINTS=1790
##XYDATA=(X++(Y..Y))
549.759 5.98 6.27 6.91 7.89 7.64 7.34 7.32 6.87 6.65 5.62
569.049 5.43 5.89 5.59 4.86 4.68 5.07 4.9 4.69 4.43 3.8733
588.339 3.6784 3.8699 4.37 3.805 3.6957 3.6412 3.3332 4.18 3.9876 3.594
607.628 3.9779 4.2 4.28 4.2 4.0457 3.4195 2.984 3.5292 3.6754 3.4075
626.918 3.0651 2.854 3.16252 3.2856 3.1157 3.13966 3.252 2.939 2.792 3.004
646.208 2.958 3.09733 2.821 3.5322 4.21 3.11951 3.19651 3.6957 3.4631 3.0608
665.498 2.623 2.46 2.756 3.2889 3.5072 3.0327 2.944 3.5016 2.92 2.432
684.787 2.53 2.488 3.0091 3.13011 1.98 2.389 3.2393 2.331 2.121 2.227
704.077 2.27 2.985 2.964 2.728 3.0617 3.10822 2.805 2.176 1.95 2.481
723.367 2.947 2.767 2.857 3.2757 3.0271 2.679 2.861 3.419 3.5458 3.0851
742.657 2.828 2.905 2.76 2.951 3.2591 3.4266 3.0441 2.143 2.385 3.4612
761.947 3.2682 2.376 2.559 2.648 2.618 2.664 2.47 2.594 2.749 2.766
781.236 2.522 2.768 2.859 2.81 2.831 3.2553 3.15554 2.478 2.67 2.664
800.526 2.98 3.299 3.2061 3.1668 2.905 2.868 3.3884 3.19113 2.704 2.339
819.816 1.96 2.444 3.09816 2.996 3.3158 3.6488 3.2618 2.888 2.543 2.574
839.106 2.918 2.563 2.382 2.76 2.873 3.0578 3.8485 4.29 3.7247 3.3062
858.395 3.6673 4.3 4.31 3.6218 4.45 4.96 4.53 4.32 3.6805 3.6553
877.685 4.19 4.86 5.3 5.3 4.99 5.13 5.41 5.2 5.67 5.95
896.975 5.32 5.25 5.77 6.26 6.49 6.79 8.39 9.82 8.34 6.87
916.265 7.04 6.87 7 7.82 7.95 7.36 7.27 7.31 7.31 7.65
935.555 7.54 7.75 7.95 7.69 8.03 8.68 10.5 12.11 9.89 7.31
954.844 6.34 6.02 6.3 6.41 6.2 6.31 6.76 6.56 6.67 6.96
974.134 7.11 8.21 8.67 8.45 8.68 8.23 7.55 7.16 7.46 7.45
993.424 6.79 6.68 5.86 5.1 5.46 5.34 5.04 5.21 4.86 3.6591
1012.714 3.7226 3.6699 3.5252 3.6532 3.4932 4.21 3.2917 2.761 3.9575 3.4473
1032.003 2.188 3.0057 3.13594 2.598 3.6093 3.4399 2.891 2.94 3.374 3.17749
1051.293 2.543 2.458 2.737 2.692 2.158 2.448 1.9 2.01 2.911 2.586
1070.583 2.236 2.04 2.634 3.14338 3.0244 3.2519 2.106 0 0.4 0.9
1089.873 1.06 3.0812 3.9408 3.13516 1.78 2.179 2.553 1.88 2.213 2.184
1109.163 2.757 2.401 1.96 3.168 2.661 2.552 2.629 1.56 1.52 3.4019
1128.452 3.7632 2.481 1.94 2.156 3.0296 3.19168 3.6942 3.6693 2.781 3.18114
1147.742 3.3631 2.418 2.651 3.8689 3.3159 3.4005 3.4838 2.321 2.628 4.0076
1167.032 3.9351 2.885 4.0715 5.13 3.9187 3.4101 5.01 4.89 3.6257 4.0455
1186.322 4.98 4.41 3.9656 5.18 5.18 3.9543 3.9677 3.6608 4.59 6.15
1205.611 6.13 4.76 4.53 7.07 7.76 8.59 8.96 9.72 11.87 13.07
1224.901 15.54 16.65 17.36 17.61 14.92 13.07 11.67 13.25 13.97 12.52
1244.191 15.05 18.11 18.3 16.62 15.08 13.72 11.88 10 8.1 6.97
1263.481 5.99 5.03 5.21 4.35 3.9421 4.81 4.76 4.46 3.7491 3.0831
1282.771 3.2655 3.19326 3.304 3.7826 3.5168 3.6704 4.22 4.15 3.9196 3.7569
1302.060 3.9344 4.12 4.098 4.0447 4.0433 4.0365 3.9231 3.8248 4.058 4.0774
1321.350 3.7841 3.814 3.716 3.6517 3.6926 3.6116 3.6598 3.6943 3.7146 3.7591
1340.640 3.6288 3.6903 3.8805 3.8746 3.8979 4.0703 4.24 4.4 4.73 5.02
1359.930 4.85 4.58 4.65 4.46 4.33 4.56 4.4 4.27 4.46 4.55
1379.219 4.76 5.06 5.1 4.91 4.93 4.94 4.53 4.0249 3.6287 3.4301
1398.509 3.4597 3.3327 3.3016 3.3876 3.3092 3.272 3.5083 3.4245 3.18771 3.4629
1417.799 3.4705 3.2947 3.2006 3.3045 3.5134 3.4066 3.3696 3.3969 3.5478 3.6639
1437.089 3.3973 3.3065 3.4885 3.6057 3.3356 3.3568 3.5664 3.6166 3.6788 3.4197
1456.378 3.2673 3.4867 3.3632 3.09797 3.0468 3.16528 3.249 3.3337 3.3203 3.0152
1475.668 2.899 2.926 2.923 2.891 3.0333 3.046 2.816 2.79 2.937 2.954
1494.958 2.751 2.887 3.2427 3.18291 3.24 3.421 3.13015 2.993 3.11805 2.911
1514.248 3.0259 3.18097 3.0692 2.714 2.766 3.0721 3.0423 3.0764 3.0504 3.0568
1533.538 3.048 3.19329 3.3451 3.5202 3.5609 3.6299 3.3912 3.5866 4.0915 4.0664
1552.827 4.3 4.52 4.75 5.43 5.99 6.78 7.34 7.53 8.56 9.74
1572.117 10.68 11.55 12.04 12.13 12.03 11.47 10.69 10.56 10.71 10.56
1591.407 9.81 10.13 11.58 12.11 11.92 10.94 9.71 8.37 6.98 5.52
1610.697 4.32 3.8235 3.4451 3.4971 3.5032 3.2388 3.0175 2.978 3.0245 3.0364
1629.986 3.0563 3.11806 2.803 2.745 3.15072 3.0125 3.0402 3.19123 2.959 2.82
1649.276 2.97 2.923 2.801 3.13047 3.2898 2.845 2.6 2.992 3.4133 3.14638
1668.566 3.0007 3.2451 3.0544 2.844 2.759 2.972 3.0302 2.883 3.0269 2.818
1687.856 2.655 2.847 2.961 3.2075 3.14435 2.82 2.996 3.13247 3.035 3.3107
1707.146 3.4864 3.2467 2.86 2.812 3.3049 3.2816 3.0678 3.10013 2.9 2.678
1726.435 2.773 3.0455 3.0507 3.11109 2.96 2.928 3.0484 3.0143 3.11044 2.976
1745.725 2.996 3.09124 3.12739 2.91 2.686 2.772 3.0832 2.987 2.642 2.814
1765.015 3.17513 3.0339 2.825 3.0117 2.985 3.2432 3.2433 2.815 2.801 2.855
1784.305 2.831 2.885 2.998 3.2181 3.3449 3.3251 3.19081 3.13876 3.27 3.3463
1803.594 3.3442 3.41 3.3749 3.278 3.6138 3.7682 3.58 3.2913 3.269 3.4227
1822.884 3.3414 3.2115 3.2304 3.3645 3.5416 3.5682 3.3301 3.3331 3.5251 3.5158
1842.174 3.5575 3.6354 3.6161 3.6467 3.6527 3.6297 3.7113 3.8083 3.7469 3.5604
1861.464 3.6572 3.8666 3.818 3.7471 3.639 3.5104 3.317 3.2618 3.14165 2.95
1880.754 2.758 2.852 3.0733 2.853 2.775 2.929 3.11767 3.10027 3.18219 3.2964
1900.043 3.12939 3.01 3.0632 3.09715 3.0661 3.0242 2.808 2.781 2.912 2.993
1919.333 3.10213 2.99 2.733 2.676 2.574 2.54 2.681 2.896 2.835 2.605
1938.623 2.727 2.833 2.688 2.733 2.994 3.0656 2.76 2.519 2.595 2.883
1957.913 2.842 2.709 2.896 2.849 2.723 2.767 2.66 2.489 2.679 2.904
1977.202 2.783 2.603 2.692 2.889 2.831 2.555 2.517 2.57 2.604 2.544
1996.492 2.704 3.0823 2.957 2.637 2.67 2.935 3.0122 2.805 2.58 2.72
2015.782 2.851 2.785 2.833 2.795 2.655 2.569 2.64 2.81 2.858 2.828
2035.072 2.915 2.782 2.697 2.793 2.965 3.0648 2.967 2.828 2.68 2.646
2054.362 2.669 2.775 2.936 3.025 2.901 2.934 3.0843 2.896 2.603 2.533
2073.651 2.459 2.424 2.538 2.679 2.704 2.587 2.667 2.662 2.629 2.6
2092.941 2.639 2.724 2.523 2.707 3.0431 2.855 2.582 2.505 2.604 2.694
2112.231 2.778 2.795 2.709 2.787 2.905 3.0334 3.13281 3.0384 2.928 2.851
2131.521 2.572 2.44 2.501 2.655 2.961 3.17535 2.871 2.668 2.768 2.779
2150.810 2.93 2.775 2.71 2.788 2.643 2.711 2.658 2.799 2.993 2.782
2170.100 2.72 2.533 2.602 2.828 2.741 2.73 2.791 2.688 2.589 2.784
2189.390 2.964 2.823 2.743 2.632 2.62 2.973 3.0021 2.745 2.749 2.996
2208.680 2.901 2.624 2.723 2.872 3.0146 3.3627 3.3342 3.10019 2.943 2.776
2227.970 2.753 2.655 2.741 2.777 2.703 2.867 3.0471 2.966 2.827 2.742
2247.259 2.693 2.779 2.88 2.958 2.938 2.972 2.788 2.673 2.706 2.51
2266.549 2.762 2.868 2.599 2.898 3.0575 2.836 2.644 2.9 3.16559 3.0657
2285.839 2.989 2.813 2.699 2.692 2.689 2.531 2.533 2.944 3.088 3.0199
2305.129 2.924 2.768 2.772 2.775 2.877 2.784 2.474 2.495 2.591 2.716
2324.418 2.817 2.791 2.996 2.996 2.833 2.878 2.875 2.891 2.663 2.434
2343.708 2.723 2.929 2.934 3.0271 2.957 2.629 2.792 2.788 2.62 2.998
2362.998 2.799 2.545 2.746 2.8 2.794 2.804 2.701 2.899 2.788 2.463
2382.288 2.926 3.2139 3.0185 2.903 2.81 2.812 2.774 2.633 2.726 2.667
2401.578 2.529 2.484 2.783 2.966 2.61 2.584 2.714 2.848 2.94 2.982
2420.867 2.843 2.646 2.669 2.583 2.665 2.591 2.267 2.462 2.761 2.751
2440.157 2.716 2.898 2.944 2.749 2.646 2.578 2.69 2.923 2.846 2.702
2459.447 2.717 2.91 2.678 2.46 2.536 2.482 2.959 3.19149 3.09955 3.0598
2478.737 2.939 2.654 2.618 2.833 2.763 2.701 2.663 2.59 2.504 2.472
2498.026 2.827 2.899 2.953 2.751 2.372 2.495 2.831 3.11853 3.1572 2.994
2517.316 2.689 2.629 2.723 2.875 3.0502 3.0724 2.816 2.815 3.015 2.572
2536.606 2.02 2.438 2.727 2.864 2.857 2.557 2.611 2.776 2.751 2.634
2555.896 2.475 2.547 2.95 2.899 2.436 2.46 2.492 2.421 2.608 2.504
2575.186 2.587 2.709 2.571 2.352 2.523 3.038 3.0861 2.958 2.813 2.738
2594.475 2.791 2.842 2.898 2.63 2.568 2.471 2.513 2.783 3.0077 2.906
2613.765 2.561 2.501 2.539 2.852 2.818 2.418 2.489 3.1184 3.315 3.2053
2633.055 3.3184 3.19015 2.774 2.907 2.925 2.797 2.971 3.10815 3.0235 2.722
2652.345 2.654 2.642 2.791 2.971 2.874 2.953 2.907 2.675 2.645 2.585
2671.634 2.922 2.93 2.909 2.941 2.903 2.711 2.52 2.601 2.368 2.48
2690.924 2.826 2.445 2.355 2.814 2.745 2.775 2.782 2.988 2.986 2.661
2710.214 2.669 2.733 2.786 2.461 2.521 2.715 2.532 2.479 2.452 2.426
2729.504 2.666 2.662 2.907 3.4758 3.17894 2.864 2.639 2.427 2.456 2.254
2748.794 2.137 2.213 2.363 2.642 2.507 2.271 2.303 2.618 3.0294 2.905
2768.083 2.452 2.345 2.57 2.821 2.559 2.257 2.202 2.147 2.449 2.767
2787.373 2.703 2.273 2.65 3.3323 3.0151 2.648 2.572 2.677 2.625 2.119
2806.663 2.325 3.11225 3.2879 3.0059 2.517 2.338 2.215 2.287 2.417 2.418
2825.953 2.411 2.233 2.629 3.2249 3.4828 2.989 2.772 2.982 2.701 2.804
2845.242 3.129 2.894 2.846 2.851 2.768 2.782 2.799 2.638 2.466 2.7
2864.532 2.603 2.616 2.906 3.0085 3.0672 2.914 3.0806 3.3771 2.816 2.52
2883.822 2.622 2.784 3.2328 3.0057 2.752 2.688 2.551 2.386 2.202 2.505
2903.112 2.704 2.931 3.19617 3.4346 3.3047 2.945 3.0384 3.18304 3.2947 3.3391
2922.401 3.0484 2.821 2.85 3.0027 3.2971 3.4311 2.874 2.61 2.716 2.277
2941.691 2.445 2.772 2.835 3.329 3.0564 2.799 2.964 2.895 2.582 2.537
2960.981 3.0182 2.837 2.756 2.856 2.778 2.536 2.605 3.10168 2.838 2.627
2980.271 2.717 2.69 3.10142 3.2778 3.2611 3.4251 3.3898 3.3021 3.5011 3.6915
2999.561 3.629 3.5635 4.27 4.46 3.6985 3.5269 4.28 4.58 4.0215 3.547
3018.850 3.4446 3.6122 3.4682 3.19697 3.633 3.9095 3.3211 3.052 2.988 2.975
3038.140 3.0495 3.18046 3.2622 3.12977 3.11926 3.2517 2.961 3.0239 3.5895 3.8661
3057.430 3.6859 3.8509 4.0091 3.8083 4.45 3.9501 3.3093 3.567 3.6406 3.868
3076.720 4.0792 4.14 4.0492 4.16 4.14 4.0481 3.8346 3.8579 4.13 3.9304
3096.009 3.864 4.0248 3.7945 3.3623 2.82 2.846 3.2246 3.344 3.2543 3.7036
3115.299 4.12 3.4806 3.12226 2.893 2.704 2.999 2.918 2.668 3.0002 3.4395
3134.589 3.2809 3.0194 2.55 2.39 2.773 2.972 2.968 2.768 2.771 2.781
3153.879 2.689 2.815 2.787 2.642 2.544 2.991 3.8503 3.6219 3.10348 2.93
3173.169 2.9 2.768 2.501 2.677 2.756 2.236 2.116 2.281 2.258 2.199
3192.458 2.854 3.6558 3.13398 2.537 3.0247 3.6626 3.6032 3.09034 2.618 2.734
3211.748 2.494 2.554 3.11517 2.509 2.394 3.14851 3.3334 3.041 2.688 2.517
3231.038 2.356 2.143 2.469 3.0321 3.2532 3.3887 3.697 2.991 2.473 2.723
3250.328 2.888 3.2725 3.0725 2.867 2.512 2.271 2.735 3.6134 3.424 2.736
3269.617 2.65 2.916 3.4945 3.7888 3.746 3.14307 3.3265 3.11864 2.409 2.04
3288.907 2.444 3.0697 2.796 2.901 2.861 2.891 2.446 2.272 2.971 3.0867
3308.197 3.1273 3.2913 3.3979 3.0573 2.471 2.703 3.0481 2.927 3.2359 2.917
3327.487 2.405 2.714 2.855 2.724 2.952 3.16045 3.12861 3.3606 3.2833 3.0145
3346.777 3.09484 3.3829 3.3067 3.2565 3.3114 3.1954 3.3016 2.88 2.557 2.798
3366.066 2.822 2.764 3.1984 3.11625 3.3738 3.8868 3.5974 3.4658 3.5555 3.3502
3385.356 2.737 2.656 2.498 2.751 3.17438 3.5146 3.406 3.13769 2.997 2.834
3404.646 2.971 3.4146 3.4227 3.251 3.18143 2.874 3.3419 3.2839 2.757 2.68
3423.936 2.555 2.409 2.503 2.845 2.98 3.0082 3.0718 2.93 3.12345 3.3574
3443.225 2.828 2.451 2.563 2.393 2.481 2.836 3.0857 3.0605 3.0671 3.09226
3462.515 2.691 2.314 2.37 2.729 2.582 2.585 2.737 2.235 1.81 1.82
3481.805 2.04 2.136 2.163 2.22 2.535 3.0323 3.19226 2.937 2.969 3.0241
3501.095 3.0597 2.691 2.305 2.906 3.4227 2.814 2.51 3.5082 3.6317 2.9
3520.385 2.108 2.313 3.0761 2.476 2.09 2.194 2.07 2.07 2.61 3.12188
3539.674 2.768 2.706 2.518 2.56 3.4098 3.2595 2.572 2.637 3.4511 3.4661
3558.964 2.899 2.622 2.61 2.894 2.379 2.272 2.555 2.452 2.39 2.245
3578.254 2.784 3.2985 2.938 2.482 2.361 2.41 2.661 2.632 2.489 2.441
3597.544 2.921 3.3923 3.205 2.787 2.784 3.11751 2.947 2.47 2.283 2.565
3616.833 2.586 2.474 2.27 2.487 2.537 2.641 2.953 3.2645 3.4025 2.779
3636.123 2.116 2.31 3.0859 3.3518 3.5521 3.15402 2.2 2.174 2.919 3.3631
3655.413 3.5641 3.4098 2.586 2.577 2.164 1.94 2.536 2.432 2.897 2.899
3674.703 2.721 3.13345 3.18819 2.889 2.78 2.979 3.0829 3.7164 3.6113 3.13009
3693.993 3.19555 3.12391 2.994 2.663 2.851 2.79 2.335 2.218 2.104 2.676
3713.282 3.2582 2.849 2.328 2.152 2.461 2.529 2.415 2.609 2.784 2.793
3732.572 2.984 3.4113 3.19696 2.815 2.597 2.434 2.759 3.0418 2.815 2.926
3751.862 2.278 1.73 2.42 2.441 2.486 3.0002 3.12618 2.42 2.612 3.395
3771.152 3.318 2.809 2.674 2.855 2.825 2.872 3.0282 3.4357 3.13955 2.516
3790.441 2.745 3.4007 3.4834 2.871 2.675 3.4988 3.451 2.782 2.692 2.595
3809.731 2.65 2.619 2.281 2.7 2.928 2.667 3.0218 2.524 1.95 2.318
3829.021 2.601 2.749 2.753 2.496 2.896 3.13203 2.571 3.2261 3.4836 2.868
3848.311 2.32 1.51 1.76 2.669 3.086 2.888 2.885 2.82 2.285 1.52
3867.601 1.7 2.989 3.7777 3.0549 2.353 2.618 2.975 2.917 2.265 2.494
3886.890 2.719 2.609 3.1774 3.419 3.19782 2.493 2.52 3.5627 3.2355 2.463
3906.180 3.0483 3.3463 3.5263 3.5219 2.652 1.92 2.494 3.1227 2.235 2.05
3925.470 2.779 3.0342 2.682 2.499 2.49 2.649 2.582 2.03 2.345 3.0166
3944.760 2.57 1.92 2.575 2.975 2.579 2.605 2.281 2.06 1.78 2.07
3964.049 2.53 2.811 2.918 2.555 2.523 2.892 2.856 2.119 2.159 2.92
3983.339 3.0855 2.347 2.198 2.58 3.0622 3.702 2.684 2.06 3.0204 2.812
##END=
