##TITLE=1,2-DIBROMO-1-CHLORO ETHANE
##JCAMP-DX=4.24
##DATA TYPE=INFRARED SPECTRUM
##CLASS=COBLENTZ
##ORIGIN=DOW CHEMICAL COMPANY
##OWNER=COBLENTZ SOCIETY
Collection (C) 2018 copyright by the U.S. Secretary of Commerce
on behalf of the United States of America. All rights reserved.
##DATE=Not specified, most likely prior to 1970
##NAMES=1,2-dibromo-1-chloroethane
##CAS REGISTRY NO=598-20-9
##MOLFORM=C2 H3 Br2 Cl
##SOURCE REFERENCE=COBLENTZ NO. 278
##$NIST SOURCE=COBLENTZ
##$NIST IMAGE=cob278
##SPECTROMETER/DATA SYSTEM=Not specified, most likely a prism, grating, or hybrid spectrometer.
##STATE=SOLUTION (10% CCl4 FOR 2.5-7.5, 10% CS2 FOR 7.5-15 MICRON)
##PATH LENGTH=0.01 CM, 0.01 CM
$$SPECTRAL CONTAMINATION DUE TO CCl4 AROUND 1550 CM^-^1
##SAMPLING PROCEDURE=TRANSMISSION
##RESOLUTION=4
##DATA PROCESSING=DIGITIZED BY NIST FROM HARD COPY
##XUNITS=MICROMETERS
##YUNITS=TRANSMITTANCE
##XFACTOR=1.000000
##YFACTOR=1
##DELTAX=000.006680
##FIRSTX=2.025
##LASTX=15.9994
##FIRSTY=0.86
##MAXX=15.9994
##MINX=2.025
##MAXY=0.985
##MINY=0.189
##NPOINTS=2093
##XYDATA=(X++(Y..Y))
2.025000 0.8600 0.8600 0.8600 0.8600 0.8620
2.058416 0.8620 0.8620 0.8640 0.8620 0.8640
2.092000 0.8650 0.8650 0.8670 0.8680 0.8680
2.125416 0.8680 0.8680 0.8680 0.8680 0.8670
2.158000 0.8640 0.8640 0.8640 0.8680 0.8680
2.191416 0.8680 0.8680 0.8680 0.8670 0.8640
2.225000 0.8640 0.8640 0.8640 0.8640 0.8640
2.258416 0.8670 0.8700 0.8700 0.8720 0.8720
2.292000 0.8700 0.8700 0.8680 0.8670 0.8670
2.325416 0.8670 0.8670 0.8700 0.8720 0.8730
2.359000 0.8720 0.8720 0.8700 0.8700 0.8680
2.392416 0.8700 0.8700 0.8730 0.8750 0.8770
2.426000 0.8780 0.8770 0.8780 0.8780 0.8780
2.459416 0.8800 0.8800 0.8780 0.8780 0.8780
2.492000 0.8780 0.8780 0.8780 0.8780 0.8780
2.525416 0.8800 0.8800 0.8800 0.8800 0.8800
2.559000 0.8800 0.8730 0.8730 0.8730 0.8730
2.592416 0.8730 0.8730 0.8730 0.8730 0.8730
2.626000 0.8800 0.8800 0.8800 0.8800 0.8800
2.659416 0.8800 0.8800 0.8780 0.8770 0.8730
2.693000 0.8730 0.8730 0.8730 0.8730 0.8730
2.726416 0.8750 0.8750 0.8750 0.8750 0.8730
2.760000 0.8700 0.8680 0.8670 0.8640 0.8640
2.793416 0.8620 0.8620 0.8620 0.8650 0.8640
2.826000 0.8640 0.8570 0.8550 0.8540 0.8520
2.859416 0.8500 0.8500 0.8490 0.8420 0.8400
2.893000 0.8370 0.8340 0.8320 0.8300 0.8290
2.926416 0.8290 0.8290 0.8300 0.8320 0.8340
2.960000 0.8370 0.8400 0.8440 0.8450 0.8470
2.993416 0.8490 0.8500 0.8500 0.8520 0.8540
3.027000 0.8540 0.8570 0.8570 0.8570 0.8590
3.060416 0.8590 0.8600 0.8600 0.8600 0.8600
3.094000 0.8620 0.8620 0.8620 0.8640 0.8650
3.127416 0.8650 0.8670 0.8670 0.8670 0.8670
3.160000 0.8670 0.8680 0.8700 0.8700 0.8720
3.193416 0.8720 0.8700 0.8680 0.8670 0.8650
3.227000 0.8680 0.8680 0.8680 0.8650 0.8620
3.260416 0.8600 0.8600 0.8550 0.8490 0.8450
3.294000 0.8370 0.8240 0.8220 0.8220 0.8290
3.327416 0.8350 0.8440 0.8470 0.8490 0.8500
3.361000 0.8520 0.8550 0.8590 0.8640 0.8680
3.394416 0.8750 0.8780 0.8800 0.8820 0.8820
3.428000 0.8830 0.8870 0.8900 0.8920 0.8920
3.461416 0.8900 0.8880 0.8880 0.8880 0.8880
3.494000 0.8880 0.8900 0.8900 0.8900 0.8900
3.527416 0.8880 0.8880 0.8880 0.8880 0.8900
3.561000 0.8930 0.8980 0.8980 0.9000 0.9000
3.594416 0.9000 0.9000 0.8930 0.8930 0.8980
3.628000 0.9000 0.9000 0.9000 0.9000 0.9020
3.661416 0.9020 0.9020 0.9030 0.9030 0.9050
3.695000 0.9050 0.9020 0.9020 0.9020 0.9020
3.728416 0.9020 0.9020 0.9080 0.9100 0.9080
3.762000 0.9070 0.9020 0.9020 0.9020 0.9050
3.795416 0.9100 0.9120 0.9170 0.9230 0.9270
3.828000 0.9250 0.9180 0.9170 0.9170 0.9270
3.861416 0.9270 0.9220 0.9120 0.9120 0.9280
3.895000 0.9280 0.9220 0.9130 0.9170 0.9230
3.928416 0.9270 0.9250 0.9250 0.9180 0.9200
3.962000 0.9270 0.9270 0.9220 0.9180 0.9180
3.995416 0.9180 0.9180 0.9180 0.9180 0.9180
4.029000 0.9200 0.9250 0.9230 0.9180 0.9180
4.062416 0.9200 0.9280 0.9280 0.9230 0.9130
4.096000 0.9180 0.9270 0.9270 0.9230 0.9170
4.129416 0.9220 0.9270 0.9280 0.9250 0.9130
4.162000 0.9130 0.9220 0.9230 0.9270 0.9270
4.195416 0.9230 0.9170 0.9150 0.9130 0.9120
4.229000 0.9100 0.9070 0.9030 0.9020 0.8980
4.262416 0.8930 0.8900 0.8820 0.8820 0.8830
4.296000 0.8830 0.8830 0.8830 0.8830 0.8880
4.329416 0.8900 0.8920 0.8930 0.8950 0.8970
4.363000 0.9000 0.9020 0.9030 0.9070 0.9080
4.396416 0.9130 0.9170 0.9250 0.9280 0.9270
4.430000 0.9200 0.9200 0.9270 0.9300 0.9320
4.463416 0.9300 0.9250 0.9250 0.9280 0.9300
4.496000 0.9320 0.9320 0.9300 0.9300 0.9280
4.529416 0.9280 0.9300 0.9300 0.9320 0.9330
4.563000 0.9330 0.9300 0.9300 0.9300 0.9300
4.596416 0.9300 0.9300 0.9300 0.9300 0.9300
4.630000 0.9320 0.9320 0.9320 0.9320 0.9320
4.663416 0.9320 0.9320 0.9320 0.9320 0.9300
4.697000 0.9300 0.9300 0.9280 0.9280 0.9280
4.730416 0.9280 0.9280 0.9280 0.9280 0.9280
4.764000 0.9300 0.9320 0.9320 0.9320 0.9320
4.797416 0.9320 0.9300 0.9280 0.9280 0.9270
4.830000 0.9250 0.9250 0.9280 0.9300 0.9320
4.863416 0.9320 0.9300 0.9300 0.9250 0.9230
4.897000 0.9230 0.9230 0.9250 0.9300 0.9280
4.930416 0.9230 0.9230 0.9230 0.9230 0.9300
4.964000 0.9300 0.9230 0.9220 0.9230 0.9230
4.997416 0.9250 0.9270 0.9250 0.9270 0.9280
5.031000 0.9280 0.9300 0.9330 0.9330 0.9320
5.064416 0.9300 0.9280 0.9280 0.9280 0.9280
5.098000 0.9280 0.9280 0.9300 0.9300 0.9320
5.131416 0.9320 0.9320 0.9320 0.9320 0.9320
5.164000 0.9330 0.9330 0.9350 0.9330 0.9330
5.197416 0.9330 0.9320 0.9300 0.9280 0.9280
5.231000 0.9280 0.9300 0.9300 0.9300 0.9280
5.264416 0.9300 0.9300 0.9280 0.9280 0.9300
5.298000 0.9280 0.9280 0.9280 0.9280 0.9270
5.331416 0.9250 0.9230 0.9230 0.9230 0.9230
5.365000 0.9280 0.9300 0.9300 0.9300 0.9230
5.398416 0.9230 0.9230 0.9230 0.9300 0.9300
5.432000 0.9300 0.9280 0.9220 0.9220 0.9230
5.465416 0.9230 0.9280 0.9300 0.9300 0.9300
5.498000 0.9300 0.9300 0.9300 0.9300 0.9300
5.531416 0.9280 0.9280 0.9270 0.9250 0.9250
5.565000 0.9280 0.9300 0.9300 0.9320 0.9320
5.598416 0.9320 0.9320 0.9320 0.9320 0.9320
5.632000 0.9300 0.9300 0.9300 0.9300 0.9300
5.665416 0.9300 0.9280 0.9270 0.9270 0.9250
5.699000 0.9230 0.9230 0.9230 0.9230 0.9230
5.732416 0.9230 0.9220 0.9220 0.9250 0.9270
5.766000 0.9270 0.9270 0.9270 0.9270 0.9280
5.799416 0.9280 0.9270 0.9270 0.9250 0.9230
5.832000 0.9230 0.9230 0.9230 0.9230 0.9250
5.865416 0.9230 0.9220 0.9200 0.9180 0.9180
5.899000 0.9200 0.9200 0.9220 0.9220 0.9220
5.932416 0.9220 0.9180 0.9170 0.9170 0.9170
5.966000 0.9150 0.9150 0.9150 0.9150 0.9130
5.999416 0.9120 0.9100 0.9070 0.9030 0.9020
6.033000 0.8930 0.8920 0.8880 0.8850 0.8830
6.066416 0.8820 0.8800 0.8800 0.8780 0.8770
6.100000 0.8750 0.8730 0.8730 0.8730 0.8720
6.133416 0.8700 0.8650 0.8600 0.8550 0.8500
6.166000 0.8420 0.8320 0.8170 0.8050 0.7870
6.199416 0.7720 0.7610 0.7490 0.7390 0.7310
6.233000 0.7190 0.7060 0.6880 0.6730 0.6600
6.266416 0.6530 0.6410 0.6330 0.6280 0.6230
6.300000 0.6200 0.6160 0.6130 0.6030 0.6010
6.333416 0.5980 0.5900 0.5800 0.5730 0.5650
6.367000 0.5580 0.5530 0.5450 0.5370 0.5240
6.400416 0.5040 0.4870 0.4820 0.4740 0.4690
6.434000 0.4670 0.4670 0.4700 0.4800 0.4900
6.467416 0.5050 0.5190 0.5400 0.5570 0.5700
6.500000 0.5800 0.5900 0.5980 0.6030 0.6080
6.533416 0.6130 0.6180 0.6230 0.6300 0.6380
6.567000 0.6480 0.6580 0.6630 0.6760 0.6860
6.600416 0.7040 0.7240 0.7420 0.7570 0.7770
6.634000 0.7890 0.7970 0.8040 0.8120 0.8200
6.667416 0.8300 0.8390 0.8500 0.8590 0.8670
6.701000 0.8720 0.8750 0.8750 0.8770 0.8780
6.734416 0.8780 0.8780 0.8800 0.8820 0.8830
6.768000 0.8870 0.8920 0.8930 0.8930 0.8930
6.801416 0.8930 0.8930 0.8930 0.8930 0.8920
6.834000 0.8920 0.8920 0.8920 0.8930 0.9000
6.867416 0.9000 0.9000 0.9000 0.8930 0.8920
6.901000 0.8900 0.8870 0.8830 0.8800 0.8720
6.934416 0.8620 0.8490 0.8300 0.8120 0.7860
6.968000 0.7490 0.7230 0.7040 0.6790 0.6680
7.001416 0.6610 0.6680 0.6940 0.7310 0.7870
7.035000 0.8270 0.8620 0.8700 0.8680 0.8670
7.068416 0.8680 0.8720 0.8780 0.8820 0.8850
7.102000 0.8870 0.8880 0.8880 0.8880 0.8900
7.135416 0.8920 0.8930 0.8980 0.9000 0.9000
7.168000 0.9000 0.9020 0.9020 0.9020 0.9030
7.201416 0.9050 0.9050 0.9030 0.9030 0.9070
7.235000 0.9080 0.9080 0.9080 0.9050 0.9050
7.268416 0.9050 0.9070 0.9080 0.9100 0.9120
7.302000 0.9130 0.9150 0.9200 0.9230 0.9230
7.335416 0.9250 0.9250 0.9250 0.9230 0.9230
7.369000 0.9250 0.9280 0.9280 0.9270 0.9270
7.402416 0.9280 0.9280 0.9280 0.9270 0.9250
7.436000 0.9250 0.9250 0.9250 0.9270 0.9280
7.469416 0.9280 0.9270 0.9250 0.9230 0.9230
7.502000 0.9230 0.9230 0.9230 0.9220 0.9220
7.535416 0.9170 0.9170 0.9170 0.9170 0.9180
7.569000 0.9200 0.9200 0.9200 0.9200 0.9130
7.602416 0.9070 0.9030 0.9030 0.9020 0.9000
7.636000 0.8980 0.8930 0.8880 0.8850 0.8780
7.669416 0.8730 0.8650 0.8550 0.8470 0.8370
7.703000 0.8250 0.8090 0.7990 0.7890 0.7810
7.736416 0.7740 0.7710 0.7690 0.7710 0.7770
7.770000 0.7860 0.7990 0.8000 0.8100 0.8200
7.803416 0.8270 0.8350 0.8370 0.8370 0.8350
7.836000 0.8320 0.8320 0.8270 0.8220 0.8200
7.869416 0.8200 0.8250 0.8420 0.8550 0.8700
7.903000 0.8800 0.8870 0.8900 0.8970 0.9000
7.936416 0.9000 0.9020 0.9020 0.9020 0.9020
7.970000 0.9020 0.9020 0.9020 0.8980 0.8980
8.003416 0.8950 0.8900 0.8870 0.8830 0.8820
8.037000 0.8800 0.8730 0.8670 0.8620 0.8540
8.070416 0.8420 0.8270 0.8100 0.7890 0.7590
8.104000 0.7230 0.6960 0.6500 0.6230 0.5970
8.137416 0.5820 0.5650 0.5600 0.5600 0.5680
8.170000 0.5800 0.5950 0.6050 0.6210 0.6630
8.203416 0.7330 0.7710 0.7870 0.8100 0.8270
8.237000 0.8370 0.8390 0.8400 0.8420 0.8440
8.270416 0.8450 0.8470 0.8490 0.8490 0.8470
8.304000 0.8420 0.8350 0.8270 0.8170 0.8040
8.337416 0.7910 0.7760 0.7620 0.7460 0.7260
8.371000 0.6980 0.6910 0.6830 0.6680 0.6400
8.404416 0.6530 0.6530 0.6650 0.7040 0.7510
8.438000 0.7760 0.7970 0.8200 0.8220 0.8220
8.471416 0.8190 0.8070 0.8020 0.7890 0.7620
8.504000 0.7330 0.7010 0.6680 0.6380 0.6080
8.537416 0.5850 0.5650 0.5520 0.5450 0.5450
8.571000 0.5830 0.6260 0.6510 0.7190 0.7560
8.604416 0.8000 0.8300 0.8570 0.8640 0.8650
8.638000 0.8680 0.8720 0.8730 0.8750 0.8770
8.671416 0.8780 0.8780 0.8770 0.8750 0.8750
8.705000 0.8730 0.8720 0.8720 0.8680 0.8670
8.738416 0.8640 0.8590 0.8550 0.8490 0.8370
8.772000 0.8240 0.8120 0.7970 0.7860 0.7590
8.805416 0.7420 0.7390 0.7330 0.7290 0.7290
8.838000 0.7280 0.7310 0.7440 0.7570 0.7710
8.871416 0.7860 0.7920 0.8020 0.8140 0.8220
8.905000 0.8290 0.8320 0.8400 0.8520 0.8590
8.938416 0.8700 0.8780 0.8900 0.8950 0.9000
8.972000 0.9050 0.9130 0.9170 0.9230 0.9270
9.005416 0.9280 0.9300 0.9330 0.9330 0.9330
9.039000 0.9350 0.9400 0.9410 0.9410 0.9410
9.072416 0.9410 0.9410 0.9410 0.9410 0.9430
9.106000 0.9430 0.9450 0.9450 0.9450 0.9450
9.139416 0.9450 0.9450 0.9450 0.9460 0.9450
9.172000 0.9450 0.9450 0.9450 0.9450 0.9450
9.205416 0.9450 0.9450 0.9430 0.9450 0.9450
9.239000 0.9430 0.9430 0.9430 0.9410 0.9410
9.272416 0.9410 0.9400 0.9410 0.9410 0.9400
9.306000 0.9400 0.9400 0.9380 0.9360 0.9360
9.339416 0.9350 0.9350 0.9350 0.9350 0.9350
9.373000 0.9350 0.9330 0.9320 0.9320 0.9300
9.406416 0.9280 0.9250 0.9230 0.9230 0.9200
9.440000 0.9180 0.9150 0.9050 0.8930 0.8830
9.473416 0.8780 0.8670 0.8590 0.8500 0.8400
9.506000 0.8290 0.8190 0.8170 0.8190 0.8190
9.539416 0.8220 0.8290 0.8390 0.8490 0.8640
9.573000 0.8680 0.8800 0.8820 0.8850 0.8900
9.606416 0.8950 0.8980 0.9020 0.9020 0.9020
9.640000 0.9030 0.9050 0.9050 0.9100 0.9150
9.673416 0.9170 0.9230 0.9270 0.9280 0.9300
9.707000 0.9300 0.9320 0.9320 0.9330 0.9360
9.740416 0.9380 0.9400 0.9410 0.9450 0.9450
9.774000 0.9460 0.9450 0.9460 0.9460 0.9500
9.807416 0.9510 0.9510 0.9510 0.9530 0.9530
9.840000 0.9530 0.9530 0.9530 0.9510 0.9530
9.873416 0.9480 0.9460 0.9450 0.9430 0.9430
9.907000 0.9430 0.9430 0.9430 0.9450 0.9460
9.940416 0.9510 0.9510 0.9530 0.9550 0.9550
9.974000 0.9560 0.9580 0.9610 0.9630 0.9650
10.007416 0.9660 0.9660 0.9650 0.9650 0.9650
10.041000 0.9660 0.9700 0.9700 0.9700 0.9700
10.074416 0.9710 0.9700 0.9710 0.9710 0.9710
10.108000 0.9750 0.9780 0.9810 0.9810 0.9830
10.141416 0.9830 0.9830 0.9830 0.9830 0.9830
10.174000 0.9830 0.9850 0.9850 0.9830 0.9830
10.207416 0.9830 0.9810 0.9810 0.9810 0.9810
10.241000 0.9810 0.9810 0.9810 0.9810 0.9800
10.274416 0.9800 0.9800 0.9800 0.9780 0.9780
10.308000 0.9800 0.9800 0.9810 0.9830 0.9830
10.341416 0.9830 0.9810 0.9810 0.9810 0.9810
10.375000 0.9800 0.9780 0.9780 0.9780 0.9760
10.408416 0.9760 0.9780 0.9780 0.9760 0.9750
10.442000 0.9750 0.9730 0.9730 0.9710 0.9700
10.475416 0.9700 0.9700 0.9680 0.9680 0.9650
10.508000 0.9630 0.9610 0.9600 0.9600 0.9600
10.541416 0.9580 0.9600 0.9610 0.9610 0.9600
10.575000 0.9580 0.9560 0.9550 0.9530 0.9510
10.608416 0.9480 0.9460 0.9450 0.9430 0.9430
10.642000 0.9410 0.9410 0.9410 0.9410 0.9400
10.675416 0.9380 0.9360 0.9350 0.9350 0.9330
10.709000 0.9330 0.9330 0.9330 0.9330 0.9330
10.742416 0.9330 0.9330 0.9320 0.9300 0.9280
10.776000 0.9250 0.9250 0.9250 0.9250 0.9250
10.809416 0.9250 0.9230 0.9230 0.9230 0.9220
10.842000 0.9220 0.9180 0.9170 0.9130 0.9120
10.875416 0.9070 0.9050 0.9020 0.9020 0.9020
10.909000 0.9000 0.8950 0.8930 0.8920 0.8920
10.942416 0.8870 0.8820 0.8800 0.8770 0.8750
10.976000 0.8730 0.8720 0.8700 0.8670 0.8650
11.009416 0.8600 0.8540 0.8450 0.8420 0.8340
11.043000 0.8250 0.8150 0.8020 0.7960 0.7810
11.076416 0.7610 0.7490 0.7310 0.7140 0.6880
11.110000 0.6580 0.6110 0.5820 0.5500 0.4990
11.143416 0.4820 0.4440 0.4060 0.3880 0.3540
11.176000 0.3340 0.3250 0.3160 0.3150 0.3180
11.209416 0.3640 0.4140 0.4420 0.4740 0.5150
11.243000 0.5240 0.5580 0.5700 0.5770 0.5880
11.276416 0.5950 0.5950 0.5880 0.5820 0.5750
11.310000 0.5650 0.5550 0.5470 0.5430 0.5420
11.343416 0.5430 0.5480 0.5630 0.5770 0.5950
11.377000 0.6110 0.6260 0.6430 0.6560 0.6680
11.410416 0.6790 0.6880 0.6940 0.7010 0.7040
11.444000 0.7110 0.7140 0.7180 0.7210 0.7210
11.477416 0.7230 0.7230 0.7230 0.7230 0.7230
11.510000 0.7210 0.7190 0.7180 0.7160 0.7140
11.543416 0.7130 0.7110 0.7080 0.7060 0.7040
11.577000 0.7030 0.7030 0.7030 0.6990 0.6960
11.610416 0.6940 0.6930 0.6890 0.6880 0.6860
11.644000 0.6840 0.6840 0.6830 0.6830 0.6810
11.677416 0.6810 0.6810 0.6810 0.6810 0.6830
11.711000 0.6840 0.6860 0.6940 0.6990 0.7040
11.744416 0.7130 0.7180 0.7230 0.7240 0.7260
11.778000 0.7330 0.7360 0.7410 0.7460 0.7510
11.811416 0.7570 0.7620 0.7660 0.7710 0.7760
11.844000 0.7770 0.7820 0.7820 0.7860 0.7920
11.877416 0.7940 0.8020 0.8020 0.8040 0.8050
11.911000 0.8120 0.8120 0.8140 0.8150 0.8170
11.944416 0.8220 0.8220 0.8240 0.8250 0.8270
11.978000 0.8270 0.8290 0.8300 0.8300 0.8320
12.011416 0.8340 0.8340 0.8340 0.8340 0.8350
12.045000 0.8350 0.8370 0.8370 0.8370 0.8390
12.078416 0.8390 0.8390 0.8390 0.8390 0.8390
12.112000 0.8390 0.8390 0.8390 0.8390 0.8390
12.145416 0.8390 0.8370 0.8370 0.8370 0.8350
12.178000 0.8350 0.8350 0.8350 0.8340 0.8340
12.211416 0.8340 0.8340 0.8320 0.8320 0.8320
12.245000 0.8300 0.8300 0.8290 0.8270 0.8250
12.278416 0.8270 0.8270 0.8250 0.8250 0.8250
12.312000 0.8250 0.8250 0.8250 0.8250 0.8250
12.345416 0.8250 0.8250 0.8250 0.8250 0.8250
12.379000 0.8240 0.8240 0.8240 0.8240 0.8240
12.412416 0.8240 0.8220 0.8220 0.8220 0.8220
12.446000 0.8200 0.8220 0.8220 0.8200 0.8200
12.479416 0.8200 0.8190 0.8170 0.8150 0.8150
12.512000 0.8150 0.8150 0.8150 0.8150 0.8150
12.545416 0.8140 0.8140 0.8140 0.8140 0.8140
12.579000 0.8140 0.8140 0.8140 0.8140 0.8140
12.612416 0.8120 0.8120 0.8120 0.8120 0.8120
12.646000 0.8120 0.8100 0.8100 0.8090 0.8090
12.679416 0.8090 0.8090 0.8090 0.8090 0.8090
12.713000 0.8090 0.8090 0.8090 0.8100 0.8100
12.746416 0.8120 0.8140 0.8150 0.8150 0.8170
12.780000 0.8170 0.8190 0.8190 0.8200 0.8200
12.813416 0.8220 0.8220 0.8220 0.8220 0.8220
12.846000 0.8240 0.8240 0.8240 0.8240 0.8250
12.879416 0.8250 0.8250 0.8250 0.8250 0.8250
12.913000 0.8250 0.8270 0.8250 0.8250 0.8250
12.946416 0.8240 0.8240 0.8240 0.8220 0.8220
12.980000 0.8220 0.8200 0.8190 0.8170 0.8170
13.013416 0.8170 0.8150 0.8140 0.8140 0.8120
13.047000 0.8100 0.8090 0.8050 0.8020 0.8000
13.080416 0.8000 0.7990 0.7990 0.7990 0.7970
13.114000 0.7940 0.7910 0.7890 0.7820 0.7790
13.147416 0.7760 0.7720 0.7670 0.7620 0.7560
13.180000 0.7520 0.7510 0.7420 0.7370 0.7240
13.213416 0.7110 0.6940 0.6830 0.6760 0.6610
13.247000 0.6330 0.6260 0.6060 0.6010 0.5780
13.280416 0.5570 0.5380 0.5170 0.5020 0.4850
13.314000 0.4700 0.4510 0.4420 0.4320 0.4240
13.347416 0.4210 0.4190 0.4190 0.4190 0.4240
13.381000 0.4370 0.4470 0.4590 0.4700 0.4940
13.414416 0.5150 0.5320 0.5350 0.5480 0.5670
13.448000 0.5830 0.5970 0.6010 0.6150 0.6280
13.481416 0.6300 0.6450 0.6560 0.6680 0.6760
13.514000 0.6860 0.6960 0.7040 0.7090 0.7190
13.547416 0.7230 0.7240 0.7290 0.7310 0.7340
13.581000 0.7390 0.7390 0.7410 0.7440 0.7460
13.614416 0.7490 0.7490 0.7490 0.7490 0.7490
13.648000 0.7490 0.7490 0.7490 0.7490 0.7490
13.681416 0.7490 0.7470 0.7470 0.7470 0.7470
13.715000 0.7460 0.7440 0.7440 0.7420 0.7420
13.748416 0.7420 0.7410 0.7410 0.7370 0.7360
13.782000 0.7340 0.7330 0.7310 0.7260 0.7230
13.815416 0.7210 0.7190 0.7140 0.7110 0.7060
13.848000 0.7030 0.7010 0.6980 0.6910 0.6890
13.881416 0.6860 0.6830 0.6790 0.6780 0.6740
13.915000 0.6730 0.6730 0.6710 0.6710 0.6710
13.948416 0.6710 0.6710 0.6710 0.6710 0.6710
13.982000 0.6710 0.6710 0.6710 0.6710 0.6710
14.015416 0.6710 0.6710 0.6710 0.6690 0.6690
14.049000 0.6660 0.6630 0.6610 0.6600 0.6550
14.082416 0.6510 0.6500 0.6460 0.6410 0.6330
14.116000 0.6300 0.6230 0.6160 0.6050 0.5980
14.149416 0.5900 0.5780 0.5670 0.5530 0.5400
14.182000 0.5250 0.5100 0.4940 0.4700 0.4490
14.215416 0.4240 0.4160 0.3940 0.3830 0.3530
14.249000 0.3440 0.3180 0.3080 0.2960 0.2800
14.282416 0.2680 0.2580 0.2500 0.2470 0.2470
14.316000 0.2480 0.2480 0.2530 0.2580 0.2680
14.349416 0.2760 0.2880 0.2960 0.3060 0.3200
14.383000 0.3280 0.3360 0.3460 0.3580 0.3740
14.416416 0.3960 0.4210 0.4310 0.4420 0.4540
14.450000 0.4640 0.4750 0.4870 0.4970 0.5050
14.483416 0.5120 0.5190 0.5270 0.5380 0.5470
14.516000 0.5520 0.5550 0.5620 0.5670 0.5720
14.549416 0.5730 0.5750 0.5780 0.5800 0.5820
14.583000 0.5820 0.5830 0.5830 0.5850 0.5870
14.616416 0.5880 0.5880 0.5880 0.5900 0.5900
14.650000 0.5920 0.5920 0.5930 0.5920 0.5930
14.683416 0.5930 0.5950 0.5930 0.5930 0.5930
14.717000 0.5920 0.5920 0.5900 0.5900 0.5900
14.750416 0.5880 0.5880 0.5870 0.5850 0.5850
14.784000 0.5830 0.5830 0.5820 0.5800 0.5780
14.817416 0.5770 0.5750 0.5720 0.5720 0.5700
14.850000 0.5680 0.5650 0.5620 0.5600 0.5600
14.883416 0.5550 0.5520 0.5500 0.5470 0.5420
14.917000 0.5370 0.5330 0.5300 0.5240 0.5200
14.950416 0.5170 0.5140 0.5100 0.5050 0.5040
14.984000 0.5000 0.4970 0.4900 0.4820 0.4700
15.017416 0.4560 0.4440 0.4390 0.4320 0.4260
15.051000 0.4140 0.4010 0.3980 0.3880 0.3760
15.084416 0.3680 0.3540 0.3480 0.3390 0.3300
15.118000 0.3210 0.3080 0.3010 0.2960 0.2900
15.151416 0.2810 0.2750 0.2680 0.2630 0.2570
15.184000 0.2520 0.2480 0.2470 0.2370 0.2350
15.217416 0.2320 0.2280 0.2230 0.2200 0.2170
15.251000 0.2130 0.2100 0.2070 0.2030 0.2020
15.284416 0.1990 0.1990 0.1970 0.1940 0.1920
15.318000 0.1890 0.1890 0.1890 0.1890 0.1890
15.351416 0.1890 0.1900 0.1920 0.1940 0.1970
15.385000 0.2000 0.2050 0.2100 0.2150 0.2200
15.418416 0.2230 0.2370 0.2530 0.2570 0.2630
15.452000 0.2700 0.2780 0.2860 0.2950 0.3030
15.485416 0.3080 0.3160 0.3230 0.3310 0.3380
15.518000 0.3430 0.3480 0.3530 0.3560 0.3560
15.551416 0.3630 0.3660 0.3710 0.3740 0.3760
15.585000 0.3790 0.3830 0.3880 0.3890 0.3930
15.618416 0.3960 0.3990 0.3990 0.4010 0.4010
15.652000 0.4020 0.4020 0.4020 0.4020 0.4020
15.685416 0.4020 0.4020 0.4020 0.4040 0.4040
15.719000 0.4040 0.4060 0.4060 0.4060 0.4060
15.752416 0.4060 0.4060 0.4060 0.4040 0.4020
15.786000 0.4020 0.4020 0.4020 0.4020 0.4020
15.819416 0.4020 0.4020 0.4020 0.4010 0.4010
15.852000 0.4010 0.4010 0.4010 0.4010 0.4010
15.885416 0.4010 0.4010 0.4010 0.4010 0.4010
15.919000 0.4010 0.4010 0.4010 0.4010 0.4010
15.952416 0.4010 0.4010 0.4010 0.4010 0.4010
15.986000 0.4010 0.4010 0.4010
##END=
