##TITLE=2-METHYLCYCLOPROPANEMETHANOL
##JCAMP-DX=4.24
##DATA TYPE=INFRARED SPECTRUM
##CLASS=COBLENTZ
##ORIGIN=ABBOTT LABORATORIES - WASHBURN
##OWNER=COBLENTZ SOCIETY
Collection (C) 2018 copyright by the U.S. Secretary of Commerce
on behalf of the United States of America. All rights reserved.
##DATE=Not specified, most likely prior to 1970
##NAMES=(2-methylcyclopropyl)methanol
##CAS REGISTRY NO=6077-72-1
##MOLFORM=C5 H10 O
##SOURCE REFERENCE=COBLENTZ NO. 3445
##$NIST SOURCE=COBLENTZ
##$NIST IMAGE=cob3445
##SPECTROMETER/DATA SYSTEM=PERKIN-ELMER
##STATE=LIQUID
##PATH LENGTH=CAPILLARY
##SAMPLING PROCEDURE=TRANSMISSION
##RESOLUTION=4
##DATA PROCESSING=DIGITIZED BY NIST FROM HARD COPY (FROM TWO SEGMENTS)
##XUNITS=MICROMETERS
##YUNITS=TRANSMITTANCE
##XFACTOR=1.000000
##YFACTOR=1
##DELTAX=0.006667
##FIRSTX=2.053
##LASTX=15.387
##FIRSTY=0.895
##MAXX=15.387
##MINX=2.053
##MAXY=0.907997
##MINY=0.075
##NPOINTS=2001
##XYDATA=(X++(Y..Y))
2.053000 0.8950 0.8950 0.8980 0.8980 0.9000
2.086335 0.9010 0.9010 0.9010 0.9000 0.8980
2.119670 0.8980 0.8980 0.8961 0.8951 0.8950
2.153005 0.8950 0.8959 0.8960 0.8960 0.8997
2.186340 0.9000 0.9000 0.9000 0.9000 0.9009
2.219675 0.9010 0.9010 0.9028 0.9057 0.9078
2.253010 0.9080 0.9060 0.9050 0.9030 0.9010
2.286345 0.9000 0.9000 0.9000 0.8980 0.8960
2.319680 0.8960 0.8951 0.8912 0.8863 0.8813
2.353015 0.8810 0.8801 0.8781 0.8780 0.8799
2.386350 0.8827 0.8848 0.8877 0.8880 0.8880
2.419685 0.8880 0.8880 0.8880 0.8880 0.8880
2.453020 0.8880 0.8880 0.8900 0.8910 0.8900
2.486355 0.8910 0.8930 0.8930 0.8930 0.8910
2.519690 0.8881 0.8880 0.8861 0.8860 0.8898
2.553025 0.8928 0.8949 0.8997 0.9009 0.8982
2.586360 0.8980 0.8962 0.8951 0.8959 0.8960
2.619695 0.8978 0.8998 0.9000 0.9000 0.9009
2.653030 0.9010 0.9010 0.9010 0.9000 0.9000
2.686365 0.8960 0.8980 0.8980 0.9010 0.9010
2.719700 0.9010 0.9000 0.9000 0.8953 0.8931
2.753035 0.8930 0.8902 0.8881 0.8814 0.8763
2.786370 0.8706 0.8528 0.8348 0.8177 0.8043
2.819705 0.7896 0.7728 0.7576 0.7382 0.7174
2.853040 0.6858 0.6579 0.6209 0.5760 0.5411
2.886375 0.4962 0.4801 0.4354 0.4004 0.3862
2.919710 0.3716 0.3490 0.3166 0.2865 0.2547
2.953045 0.2199 0.1991 0.1716 0.1447 0.1318
2.986380 0.1283 0.1190 0.1072 0.1015 0.1001
3.019715 0.0982 0.0917 0.0883 0.0862 0.0851
3.053050 0.0850 0.0850 0.0860 0.0880 0.0930
3.086385 0.0960 0.0980 0.1079 0.1129 0.1209
3.119720 0.1258 0.1375 0.1504 0.1605 0.1695
3.153055 0.1823 0.1991 0.2104 0.2195 0.2341
3.186390 0.2496 0.2682 0.2863 0.2970 0.3250
3.219725 0.3621 0.3857 0.4219 0.4438 0.4656
3.253060 0.4832 0.5011 0.5130 0.5150 0.5150
3.286395 0.5030 0.4682 0.4451 0.4381 0.4607
3.319730 0.5158 0.5209 0.5162 0.4960 0.4598
3.353065 0.4276 0.3948 0.3061 0.2200 0.2150
3.386400 0.2378 0.2718 0.2986 0.3236 0.3260
3.419735 0.2739 0.2187 0.1522 0.1432 0.1448
3.453070 0.1560 0.1581 0.1651 0.1750 0.1800
3.486405 0.1830 0.1900 0.1999 0.2030 0.2030
3.519740 0.1905 0.1833 0.1801 0.1829 0.2163
3.553075 0.2589 0.2657 0.3152 0.3557 0.4399
3.586410 0.4724 0.5068 0.5399 0.5702 0.5938
3.619745 0.6050 0.6258 0.6370 0.6514 0.6619
3.653080 0.6761 0.6860 0.6900 0.6950 0.6960
3.686415 0.6980 0.6980 0.7080 0.7150 0.7210
3.719750 0.7277 0.7347 0.7407 0.7448 0.7526
3.753085 0.7597 0.7647 0.7678 0.7708 0.7710
3.786420 0.7728 0.7748 0.7750 0.7777 0.7825
3.819755 0.7875 0.7925 0.7948 0.7959 0.8005
3.853090 0.8060 0.8080 0.8080 0.8100 0.8100
3.886425 0.8130 0.8180 0.8180 0.8200 0.8210
3.919760 0.8249 0.8260 0.8260 0.8298 0.8310
3.953095 0.8329 0.8330 0.8330 0.8349 0.8350
3.986430 0.8378 0.8407 0.8446 0.8477 0.8498
4.019765 0.8509 0.8510 0.8528 0.8530 0.8530
4.053100 0.8550 0.8549 0.8510 0.8500 0.8480
4.086435 0.8480 0.8460 0.8450 0.8430 0.8410
4.119770 0.8410 0.8400 0.8381 0.8399 0.8410
4.153105 0.8448 0.8460 0.8498 0.8500 0.8500
4.186440 0.8509 0.8510 0.8510 0.8528 0.8548
4.219775 0.8550 0.8559 0.8560 0.8578 0.8580
4.253110 0.8580 0.8601 0.8660 0.8660 0.8650
4.286445 0.8650 0.8650 0.8630 0.8630 0.8630
4.319780 0.8630 0.8630 0.8611 0.8600 0.8562
4.353115 0.8531 0.8530 0.8511 0.8510 0.8510
4.386450 0.8528 0.8576 0.8580 0.8553 0.8532
4.419785 0.8512 0.8501 0.8509 0.8501 0.8500
4.453120 0.8500 0.8500 0.8500 0.8480 0.8480
4.486455 0.8460 0.8460 0.8460 0.8460 0.8460
4.519790 0.8460 0.8479 0.8499 0.8510 0.8529
4.553125 0.8530 0.8511 0.8510 0.8500 0.8500
4.586460 0.8500 0.8528 0.8530 0.8484 0.8462
4.619795 0.8451 0.8450 0.8432 0.8430 0.8430
4.653130 0.8410 0.8410 0.8400 0.8400 0.8400
4.686465 0.8430 0.8430 0.8400 0.8380 0.8380
4.719800 0.8399 0.8400 0.8361 0.8350 0.8331
4.753135 0.8330 0.8311 0.8310 0.8300 0.8300
4.786470 0.8328 0.8348 0.8359 0.8351 0.8332
4.819805 0.8330 0.8312 0.8310 0.8265 0.8233
4.853140 0.8209 0.8180 0.8160 0.8160 0.8150
4.886475 0.8130 0.8130 0.8110 0.8110 0.8130
4.919810 0.8149 0.8160 0.8179 0.8209 0.8210
4.953145 0.8200 0.8200 0.8181 0.8151 0.8160
4.986480 0.8178 0.8198 0.8210 0.8229 0.8211
5.019815 0.8201 0.8163 0.8160 0.8205 0.8245
5.053150 0.8259 0.8294 0.8309 0.8328 0.8330
5.086485 0.8312 0.8310 0.8301 0.8283 0.8263
5.119820 0.8252 0.8250 0.8257 0.8260 0.8260
5.153155 0.8253 0.8250 0.8237 0.8230 0.8249
5.186490 0.8291 0.8322 0.8343 0.8350 0.8357
5.219825 0.8360 0.8360 0.8372 0.8362 0.8350
5.253160 0.8350 0.8350 0.8355 0.8360 0.8369
5.286495 0.8367 0.8354 0.8368 0.8372 0.8360
5.319830 0.8349 0.8319 0.8300 0.8304 0.8310
5.353165 0.8310 0.8318 0.8330 0.8337 0.8353
5.386500 0.8357 0.8350 0.8350 0.8352 0.8358
5.419835 0.8350 0.8346 0.8330 0.8330 0.8330
5.453170 0.8330 0.8330 0.8330 0.8330 0.8330
5.486505 0.8330 0.8330 0.8330 0.8332 0.8350
5.519840 0.8350 0.8349 0.8330 0.8330 0.8311
5.553175 0.8310 0.8301 0.8300 0.8282 0.8280
5.586510 0.8280 0.8263 0.8260 0.8260 0.8278
5.619845 0.8280 0.8280 0.8280 0.8306 0.8310
5.653180 0.8302 0.8300 0.8284 0.8280 0.8280
5.686515 0.8280 0.8280 0.8314 0.8310 0.8274
5.719850 0.8241 0.8230 0.8218 0.8190 0.8160
5.753185 0.8150 0.8156 0.8160 0.8160 0.8172
5.786520 0.8192 0.8206 0.8210 0.8205 0.8191
5.819855 0.8180 0.8180 0.8193 0.8210 0.8206
5.853190 0.8200 0.8204 0.8210 0.8210 0.8206
5.886525 0.8184 0.8156 0.8142 0.8123 0.8110
5.919860 0.8110 0.8107 0.8087 0.8046 0.7999
5.953195 0.7958 0.7946 0.7930 0.7927 0.7902
5.986530 0.7856 0.7826 0.7798 0.7776 0.7743
6.019865 0.7710 0.7708 0.7700 0.7700 0.7700
6.053200 0.7700 0.7700 0.7700 0.7700 0.7700
6.086535 0.7700 0.7700 0.7700 0.7728 0.7730
6.119870 0.7730 0.7730 0.7748 0.7750 0.7759
6.153205 0.7778 0.7780 0.7798 0.7826 0.7830
6.186540 0.7830 0.7830 0.7813 0.7802 0.7800
6.219875 0.7786 0.7766 0.7760 0.7740 0.7717
6.253210 0.7710 0.7710 0.7710 0.7710 0.7710
6.286545 0.7710 0.7710 0.7710 0.7710 0.7710
6.319880 0.7710 0.7710 0.7710 0.7710 0.7720
6.353215 0.7730 0.7730 0.7730 0.7739 0.7750
6.386550 0.7750 0.7754 0.7760 0.7767 0.7788
6.419885 0.7804 0.7810 0.7790 0.7756 0.7742
6.453220 0.7730 0.7730 0.7723 0.7707 0.7700
6.486555 0.7695 0.7680 0.7676 0.7654 0.7625
6.519890 0.7593 0.7555 0.7527 0.7509 0.7498
6.553225 0.7480 0.7483 0.7500 0.7501 0.7506
6.586560 0.7474 0.7420 0.7330 0.7328 0.7310
6.619895 0.7310 0.7300 0.7281 0.7261 0.7232
6.653230 0.7156 0.7068 0.7033 0.7004 0.6965
6.686565 0.6951 0.6858 0.6759 0.6660 0.6588
6.719900 0.6493 0.6334 0.6217 0.6058 0.5891
6.753235 0.5701 0.5512 0.5317 0.5183 0.5088
6.786570 0.4918 0.4718 0.4475 0.4170 0.4006
6.819905 0.3927 0.3785 0.3684 0.3627 0.3572
6.853240 0.3525 0.3473 0.3438 0.3412 0.3371
6.886575 0.3224 0.2793 0.2408 0.2360 0.2391
6.919910 0.2473 0.2621 0.2831 0.2989 0.3099
6.953245 0.3227 0.3334 0.3413 0.3501 0.3599
6.986580 0.3660 0.3642 0.3592 0.3557 0.3543
7.019915 0.3515 0.3464 0.3408 0.3392 0.3354
7.053250 0.3325 0.3288 0.3222 0.3176 0.3137
7.086585 0.3041 0.2961 0.2875 0.2850 0.2879
7.119920 0.3081 0.3301 0.3462 0.3571 0.3690
7.153255 0.3805 0.3879 0.3909 0.3977 0.4103
7.186590 0.4157 0.4197 0.4200 0.4155 0.4115
7.219925 0.4066 0.4013 0.3964 0.3768 0.3507
7.253260 0.3409 0.3356 0.3350 0.3460 0.3622
7.286595 0.3856 0.4325 0.4679 0.4825 0.4892
7.319930 0.4979 0.5037 0.5083 0.5120 0.5162
7.353265 0.5193 0.5187 0.5160 0.5137 0.5117
7.386600 0.5123 0.5161 0.5223 0.5256 0.5284
7.419935 0.5317 0.5341 0.5365 0.5389 0.5405
7.453270 0.5410 0.5410 0.5410 0.5410 0.5406
7.486605 0.5381 0.5350 0.5341 0.5322 0.5298
7.519940 0.5280 0.5272 0.5260 0.5260 0.5274
7.553275 0.5300 0.5303 0.5320 0.5350 0.5356
7.586610 0.5380 0.5386 0.5410 0.5408 0.5397
7.619945 0.5380 0.5377 0.5360 0.5358 0.5347
7.653280 0.5333 0.5354 0.5383 0.5400 0.5403
7.686615 0.5433 0.5463 0.5510 0.5579 0.5609
7.719950 0.5629 0.5677 0.5726 0.5730 0.5793
7.753285 0.5853 0.5878 0.5908 0.5947 0.5996
7.786620 0.6027 0.6092 0.6170 0.6206 0.6227
7.819955 0.6289 0.6325 0.6345 0.6357 0.6374
7.853290 0.6415 0.6444 0.6450 0.6450 0.6457
7.886625 0.6460 0.6473 0.6467 0.6460 0.6460
7.919960 0.6453 0.6437 0.6417 0.6391 0.6350
7.953295 0.6318 0.6281 0.6233 0.6171 0.6059
7.986630 0.5897 0.5733 0.5611 0.5492 0.5351
8.019965 0.5260 0.5211 0.5168 0.5150 0.5150
8.053300 0.5154 0.5180 0.5249 0.5336 0.5391
8.086635 0.5452 0.5564 0.5669 0.5782 0.5861
8.119970 0.5922 0.6016 0.6093 0.6170 0.6268
8.153305 0.6318 0.6366 0.6404 0.6436 0.6478
8.186640 0.6567 0.6602 0.6610 0.6610 0.6612
8.219975 0.6632 0.6650 0.6651 0.6660 0.6630
8.253310 0.6601 0.6552 0.6484 0.6452 0.6432
8.286645 0.6367 0.6306 0.6238 0.6183 0.6161
8.319980 0.6151 0.6150 0.6159 0.6195 0.6287
8.353315 0.6369 0.6439 0.6492 0.6523 0.6567
8.386650 0.6616 0.6666 0.6750 0.6801 0.6810
8.419985 0.6836 0.6856 0.6860 0.6874 0.6894
8.453320 0.6920 0.6930 0.6930 0.6917 0.6910
8.486655 0.6904 0.6888 0.6839 0.6805 0.6790
8.519990 0.6770 0.6746 0.6676 0.6575 0.6521
8.553325 0.6498 0.6468 0.6411 0.6334 0.6306
8.586660 0.6270 0.6201 0.6099 0.5990 0.5949
8.619995 0.5912 0.5845 0.5753 0.5672 0.5558
8.653330 0.5388 0.5341 0.5308 0.5292 0.5255
8.686665 0.5213 0.5138 0.5190 0.5251 0.5274
8.720000 0.5339 0.5385 0.5429 0.5542 0.5626
8.753335 0.5734 0.5765 0.5815 0.5864 0.5910
8.786670 0.5979 0.6048 0.6146 0.6178 0.6199
8.820005 0.6209 0.6292 0.6300 0.6282 0.6233
8.853340 0.6183 0.6161 0.6105 0.6064 0.6007
8.886675 0.5921 0.5910 0.5944 0.5992 0.6023
8.920010 0.6052 0.6133 0.6260 0.6356 0.6428
8.953345 0.6470 0.6493 0.6520 0.6549 0.6574
8.986680 0.6594 0.6634 0.6657 0.6660 0.6654
9.020015 0.6637 0.6599 0.6580 0.6551 0.6514
9.053350 0.6465 0.6396 0.6336 0.6305 0.6256
9.086685 0.6127 0.5967 0.5827 0.5695 0.5610
9.120020 0.5619 0.5660 0.5721 0.5762 0.5808
9.153355 0.5861 0.5898 0.5930 0.5906 0.5857
9.186690 0.5845 0.5794 0.5642 0.5487 0.5372
9.220025 0.5217 0.5001 0.4834 0.4665 0.4419
9.253360 0.4144 0.3981 0.3882 0.3772 0.3612
9.286695 0.3483 0.3279 0.3051 0.2975 0.2928
9.320030 0.2900 0.2850 0.2752 0.2586 0.2294
9.353365 0.2017 0.1657 0.1465 0.1279 0.1127
9.386700 0.1100 0.1006 0.0888 0.0816 0.0756
9.420035 0.0750 0.0776 0.0806 0.0844 0.0900
9.453370 0.1297 0.1723 0.1962 0.2118 0.2245
9.486705 0.2363 0.2502 0.2690 0.2871 0.2994
9.520040 0.3044 0.3050 0.3057 0.3053 0.3037
9.553375 0.3011 0.2968 0.2894 0.2763 0.2611
9.586710 0.2468 0.2215 0.1860 0.1547 0.1368
9.620045 0.1294 0.1185 0.1070 0.1010 0.0960
9.653380 0.0909 0.0857 0.0817 0.0800 0.0800
9.686715 0.0792 0.0780 0.0773 0.0756 0.0750
9.720050 0.0753 0.0760 0.0760 0.0760 0.0760
9.753385 0.0768 0.0800 0.0802 0.0810 0.0813
9.786720 0.0833 0.0856 0.0903 0.1000 0.1002
9.820055 0.1013 0.1033 0.1050 0.1050 0.1048
9.853390 0.1028 0.1010 0.1000 0.0961 0.0931
9.886725 0.0911 0.0853 0.0831 0.0830 0.0902
9.920060 0.0946 0.1046 0.1097 0.1156 0.1271
9.953395 0.1398 0.1500 0.1704 0.1860 0.1949
9.986730 0.2002 0.2049 0.2112 0.2218 0.2366
10.020065 0.2446 0.2495 0.2524 0.2564 0.2613
10.053400 0.2649 0.2694 0.2724 0.2716 0.2703
10.086735 0.2687 0.2661 0.2625 0.2604 0.2600
10.120070 0.2600 0.2600 0.2605 0.2620 0.2654
10.153405 0.2717 0.2828 0.2950 0.3068 0.3189
10.186740 0.3278 0.3405 0.3526 0.3633 0.3747
10.220075 0.3839 0.3989 0.4220 0.4394 0.4573
10.253410 0.4739 0.4839 0.4921 0.4987 0.5022
10.286745 0.5091 0.5221 0.5321 0.5428 0.5517
10.320080 0.5558 0.5602 0.5614 0.5636 0.5664
10.353415 0.5680 0.5680 0.5677 0.5659 0.5648
10.386750 0.5628 0.5609 0.5600 0.5600 0.5600
10.420085 0.5600 0.5600 0.5609 0.5629 0.5648
10.453420 0.5659 0.5696 0.5806 0.5858 0.5944
10.486755 0.6052 0.6151 0.6286 0.6442 0.6565
10.520090 0.6640 0.6743 0.6776 0.6855 0.6917
10.553425 0.6966 0.7030 0.7071 0.7080 0.7094
10.586760 0.7133 0.7170 0.7201 0.7224 0.7244
10.620095 0.7270 0.7293 0.7300 0.7319 0.7343
10.653430 0.7356 0.7372 0.7380 0.7380 0.7380
10.686765 0.7366 0.7331 0.7305 0.7291 0.7280
10.720100 0.7280 0.7272 0.7256 0.7232 0.7197
10.753435 0.7158 0.7109 0.7072 0.7040 0.6999
10.786770 0.6962 0.6894 0.6782 0.6646 0.6528
10.820105 0.6448 0.6388 0.6308 0.6290 0.6228
10.853440 0.6130 0.6125 0.6100 0.6096 0.6084
10.886775 0.6121 0.6227 0.6326 0.6420 0.6483
10.920110 0.6510 0.6588 0.6655 0.6700 0.6730
10.953445 0.6780 0.6829 0.6859 0.6879 0.6908
10.986780 0.6929 0.6957 0.7005 0.7029 0.7049
11.020115 0.7050 0.7050 0.7032 0.7003 0.7000
11.053450 0.6982 0.6954 0.6916 0.6886 0.6865
11.086785 0.6815 0.6734 0.6638 0.6568 0.6488
11.120120 0.6392 0.6293 0.6175 0.6060 0.5924
11.153455 0.5762 0.5655 0.5610 0.5521 0.5467
11.186790 0.5454 0.5450 0.5468 0.5536 0.5590
11.220125 0.5630 0.5718 0.5827 0.5949 0.6088
11.253460 0.6212 0.6310 0.6391 0.6493 0.6564
11.286795 0.6594 0.6649 0.6704 0.6718 0.6730
11.320130 0.6738 0.6769 0.6811 0.6824 0.6807
11.353465 0.6800 0.6802 0.6810 0.6808 0.6796
11.386800 0.6774 0.6741 0.6685 0.6600 0.6539
11.420135 0.6486 0.6405 0.6291 0.6227 0.6095
11.453470 0.5995 0.5881 0.5734 0.5598 0.5476
11.486805 0.5279 0.5131 0.4963 0.4834 0.4715
11.520140 0.4635 0.4565 0.4532 0.4485 0.4402
11.553475 0.4333 0.4311 0.4329 0.4348 0.4404
11.586810 0.4446 0.4565 0.4710 0.4858 0.4998
11.620145 0.5167 0.5397 0.5600 0.5795 0.5992
11.653480 0.6210 0.6335 0.6420 0.6503 0.6544
11.686815 0.6607 0.6686 0.6737 0.6757 0.6760
11.720150 0.6786 0.6819 0.6842 0.6850 0.6884
11.753485 0.6920 0.6915 0.6900 0.6900 0.6900
11.786820 0.6891 0.6880 0.6867 0.6829 0.6800
11.820155 0.6814 0.6844 0.6869 0.6893 0.6918
11.853490 0.6942 0.6979 0.7010 0.7017 0.7030
11.886825 0.7025 0.7007 0.7000 0.7000 0.6996
11.920160 0.6976 0.6960 0.6958 0.6950 0.6947
11.953495 0.6930 0.6926 0.6910 0.6910 0.6908
11.986830 0.6897 0.6880 0.6877 0.6860 0.6860
12.020165 0.6860 0.6860 0.6880 0.6900 0.6910
12.053500 0.6948 0.6978 0.7027 0.7030 0.7048
12.086835 0.7050 0.7031 0.7030 0.7030 0.7030
12.120170 0.7030 0.7048 0.7032 0.7013 0.7001
12.153505 0.6984 0.6980 0.6980 0.6980 0.6980
12.186840 0.6966 0.6960 0.6960 0.6974 0.7000
12.220175 0.7038 0.7050 0.7050 0.7057 0.7074
12.253510 0.7080 0.7080 0.7080 0.7080 0.7068
12.286845 0.7043 0.7020 0.7020 0.7030 0.7020
12.320180 0.7010 0.7005 0.7000 0.7000 0.6992
12.353515 0.6971 0.6946 0.6916 0.6891 0.6880
12.386850 0.6872 0.6856 0.6834 0.6806 0.6793
12.420185 0.6780 0.6772 0.6750 0.6750 0.6745
12.453520 0.6723 0.6690 0.6642 0.6599 0.6541
12.486855 0.6488 0.6414 0.6337 0.6230 0.6141
12.520190 0.6091 0.6044 0.6001 0.5943 0.5889
12.553525 0.5800 0.5707 0.5609 0.5560 0.5481
12.586860 0.5460 0.5479 0.5509 0.5576 0.5599
12.620195 0.5691 0.5710 0.5758 0.5798 0.5847
12.653530 0.5878 0.5907 0.5928 0.5957 0.6004
12.686865 0.6010 0.6010 0.6002 0.6000 0.6000
12.720200 0.5985 0.5980 0.5966 0.5960 0.5940
12.753535 0.5877 0.5822 0.5803 0.5786 0.5745
12.786870 0.5682 0.5627 0.5603 0.5587 0.5567
12.820205 0.5541 0.5473 0.5393 0.5345 0.5320
12.853540 0.5305 0.5291 0.5280 0.5289 0.5313
12.886875 0.5359 0.5422 0.5450 0.5441 0.5421
12.920210 0.5406 0.5400 0.5400 0.5392 0.5372
12.953545 0.5356 0.5337 0.5293 0.5231 0.5150
12.986880 0.5048 0.4992 0.4909 0.4806 0.4686
13.020215 0.4554 0.4404 0.4239 0.4091 0.4054
13.053550 0.4024 0.3993 0.3960 0.3986 0.4144
13.086885 0.4245 0.4355 0.4403 0.4482 0.4601
13.120220 0.4679 0.4758 0.4857 0.4946 0.4978
13.153555 0.5026 0.5094 0.5159 0.5247 0.5307
13.186890 0.5376 0.5427 0.5458 0.5505 0.5573
13.220225 0.5598 0.5609 0.5626 0.5653 0.5660
13.253560 0.5675 0.5680 0.5680 0.5694 0.5700
13.286895 0.5700 0.5700 0.5707 0.5710 0.5710
13.320230 0.5724 0.5730 0.5730 0.5743 0.5756
13.353565 0.5785 0.5800 0.5806 0.5810 0.5820
13.386900 0.5830 0.5845 0.5860 0.5855 0.5850
13.420235 0.5850 0.5841 0.5830 0.5830 0.5839
13.453570 0.5841 0.5830 0.5830 0.5830 0.5822
13.486905 0.5806 0.5800 0.5800 0.5800 0.5803
13.520240 0.5810 0.5810 0.5808 0.5800 0.5796
13.553575 0.5776 0.5760 0.5758 0.5752 0.5760
13.586910 0.5758 0.5746 0.5726 0.5710 0.5708
13.620245 0.5697 0.5683 0.5700 0.5699 0.5680
13.653580 0.5660 0.5660 0.5650 0.5650 0.5650
13.686915 0.5650 0.5631 0.5630 0.5630 0.5611
13.720250 0.5610 0.5601 0.5581 0.5580 0.5580
13.753585 0.5562 0.5578 0.5580 0.5580 0.5580
13.786920 0.5565 0.5560 0.5560 0.5553 0.5550
13.820255 0.5522 0.5510 0.5510 0.5503 0.5485
13.853590 0.5480 0.5466 0.5460 0.5453 0.5437
13.886925 0.5417 0.5410 0.5410 0.5404 0.5400
13.920260 0.5390 0.5380 0.5370 0.5360 0.5346
13.953595 0.5330 0.5330 0.5330 0.5321 0.5305
13.986930 0.5300 0.5305 0.5328 0.5350 0.5342
14.020265 0.5318 0.5300 0.5292 0.5287 0.5303
14.053600 0.5310 0.5307 0.5295 0.5275 0.5260
14.086935 0.5260 0.5258 0.5250 0.5246 0.5230
14.120270 0.5230 0.5226 0.5210 0.5208 0.5200
14.153605 0.5197 0.5177 0.5159 0.5148 0.5130
14.186940 0.5129 0.5110 0.5110 0.5110 0.5100
14.220275 0.5100 0.5100 0.5109 0.5110 0.5100
14.253610 0.5100 0.5081 0.5080 0.5052 0.5013
14.286945 0.5001 0.5000 0.5000 0.5026 0.5030
14.320280 0.5030 0.5030 0.5015 0.4988 0.4980
14.353615 0.4966 0.4960 0.4960 0.4953 0.4950
14.386950 0.4950 0.4950 0.4950 0.4950 0.4950
14.420285 0.4937 0.4917 0.4891 0.4880 0.4892
14.453620 0.4905 0.4910 0.4910 0.4905 0.4890
14.486955 0.4880 0.4880 0.4880 0.4871 0.4860
14.520290 0.4855 0.4850 0.4841 0.4821 0.4819
14.553625 0.4830 0.4830 0.4822 0.4818 0.4830
14.586960 0.4830 0.4830 0.4830 0.4825 0.4808
14.620295 0.4791 0.4760 0.4760 0.4758 0.4746
14.653630 0.4730 0.4741 0.4784 0.4802 0.4804
14.686965 0.4780 0.4775 0.4739 0.4676 0.4648
14.720300 0.4630 0.4631 0.4650 0.4650 0.4660
14.753635 0.4680 0.4680 0.4680 0.4680 0.4680
14.786970 0.4660 0.4650 0.4650 0.4650 0.4631
14.820305 0.4611 0.4610 0.4601 0.4582 0.4580
14.853640 0.4580 0.4564 0.4560 0.4560 0.4560
14.886975 0.4575 0.4580 0.4580 0.4594 0.4607
14.920310 0.4625 0.4645 0.4650 0.4650 0.4636
14.953645 0.4616 0.4603 0.4574 0.4554 0.4537
14.986980 0.4501 0.4480 0.4469 0.4460 0.4460
15.020315 0.4455 0.4450 0.4450 0.4455 0.4460
15.053650 0.4460 0.4455 0.4450 0.4450 0.4432
15.086985 0.4410 0.4410 0.4410 0.4410 0.4418
15.120320 0.4430 0.4430 0.4430 0.4425 0.4407
15.153655 0.4390 0.4360 0.4358 0.4346 0.4330
15.186990 0.4334 0.4350 0.4352 0.4360 0.4358
15.220325 0.4350 0.4343 0.4302 0.4263 0.4283
15.253660 0.4304 0.4330 0.4330 0.4330 0.4310
15.286995 0.4300 0.4300 0.4281 0.4280 0.4261
15.320330 0.4260 0.4260 0.4250 0.4231 0.4230
15.353665 0.4230 0.4249 0.4250 0.4259 0.4260
15.387000 0.4260
##END=
