##TITLE=1,2-DIIODO ETHANE
##JCAMP-DX=4.24
##DATA TYPE=INFRARED SPECTRUM
##CLASS=COBLENTZ
##ORIGIN=DOW CHEMICAL COMPANY
##OWNER=COBLENTZ SOCIETY
Collection (C) 2018 copyright by the U.S. Secretary of Commerce
on behalf of the United States of America. All rights reserved.
##DATE=Not specified, most likely prior to 1970
##NAMES=1,2-diiodoethane
##CAS REGISTRY NO=624-73-7
##MOLFORM=C2 H4 I2
##SOURCE REFERENCE=COBLENTZ NO. 1943
##$NIST SOURCE=COBLENTZ
##$NIST IMAGE=cob1943
##SPECTROMETER/DATA SYSTEM=Not specified, most likely a prism, grating, or hybrid spectrometer.
##STATE=SOLUTION (10% CCl4 FOR 5000-1330, 10% CS2 FOR 1330-625 CM^-^1)
##PATH LENGTH=0.0122 CM, 0.0105 CM
##SAMPLING PROCEDURE=TRANSMISSION
##RESOLUTION=4
##DATA PROCESSING=DIGITIZED BY NIST FROM HARD COPY
##XUNITS=MICROMETERS
##YUNITS=TRANSMITTANCE
##XFACTOR=1.000000
##YFACTOR=1
##DELTAX=000.006839
##FIRSTX=2.027
##LASTX=15.8704
##FIRSTY=0.901
##MAXX=15.8704
##MINX=2.027
##MAXY=0.914
##MINY=0.139
##NPOINTS=2025
##XYDATA=(X++(Y..Y))
2.027000 0.9010 0.9010 0.9010 0.9010 0.9010
2.061213 0.9010 0.9010 0.9010 0.8990 0.8970
2.096000 0.8970 0.8970 0.8960 0.8960 0.8960
2.130213 0.8960 0.8960 0.8960 0.8960 0.8960
2.164000 0.8940 0.8940 0.8940 0.8940 0.8920
2.198213 0.8920 0.8910 0.8890 0.8870 0.8870
2.233000 0.8870 0.8910 0.8920 0.8940 0.8940
2.267213 0.8940 0.8960 0.8960 0.8960 0.8960
2.301000 0.8940 0.8920 0.8910 0.8910 0.8910
2.335213 0.8910 0.8910 0.8910 0.8920 0.8970
2.369000 0.8970 0.8990 0.8990 0.8990 0.8990
2.403213 0.8970 0.8970 0.8970 0.8970 0.8970
2.438000 0.8970 0.8970 0.8970 0.8970 0.8970
2.472213 0.8960 0.8960 0.8960 0.8960 0.8960
2.506000 0.8960 0.8960 0.8960 0.8960 0.8940
2.540213 0.8940 0.8940 0.8940 0.8940 0.8940
2.574000 0.8940 0.8940 0.8920 0.8920 0.8920
2.608213 0.8920 0.8920 0.8920 0.8920 0.8940
2.643000 0.8940 0.8960 0.8960 0.8970 0.8970
2.677213 0.8970 0.8970 0.8990 0.8990 0.8990
2.711000 0.9010 0.9010 0.9010 0.9010 0.9010
2.745213 0.9010 0.9010 0.8990 0.8970 0.8960
2.780000 0.8960 0.8960 0.8960 0.8960 0.8970
2.814213 0.8990 0.8990 0.9010 0.9010 0.9030
2.848000 0.9030 0.9030 0.9030 0.9030 0.9030
2.882213 0.9030 0.9030 0.9040 0.9040 0.9080
2.916000 0.9090 0.9130 0.9130 0.9140 0.9140
2.950213 0.9140 0.9130 0.9110 0.9110 0.9090
2.985000 0.9090 0.9080 0.9080 0.9080 0.9080
3.019213 0.9080 0.9080 0.9080 0.9080 0.9080
3.053000 0.9060 0.9040 0.9040 0.9040 0.9030
3.087213 0.9030 0.9010 0.9010 0.8990 0.8990
3.122000 0.8990 0.8970 0.8960 0.8960 0.8960
3.156213 0.8960 0.8960 0.8960 0.8960 0.8960
3.190000 0.8960 0.8960 0.8960 0.8940 0.8920
3.224213 0.8920 0.8910 0.8890 0.8890 0.8870
3.258000 0.8860 0.8860 0.8840 0.8840 0.8820
3.292213 0.8820 0.8820 0.8820 0.8870 0.8870
3.327000 0.8870 0.8890 0.8890 0.8890 0.8890
3.361213 0.8890 0.8890 0.8890 0.8910 0.8910
3.395000 0.8910 0.8910 0.8920 0.8920 0.8920
3.429213 0.8920 0.8920 0.8920 0.8920 0.8920
3.464000 0.8920 0.8920 0.8920 0.8920 0.8920
3.498213 0.8920 0.8920 0.8920 0.8920 0.8920
3.532000 0.8920 0.8920 0.8940 0.8940 0.8940
3.566213 0.8920 0.8940 0.8940 0.8940 0.8940
3.600000 0.8940 0.8940 0.8940 0.8940 0.8940
3.634213 0.8920 0.8920 0.8920 0.8920 0.8920
3.669000 0.8920 0.8910 0.8910 0.8910 0.8910
3.703213 0.8910 0.8910 0.8910 0.8920 0.8920
3.737000 0.8920 0.8920 0.8920 0.8920 0.8920
3.771213 0.8910 0.8910 0.8910 0.8910 0.8910
3.806000 0.8910 0.8920 0.8920 0.8920 0.8920
3.840213 0.8920 0.8920 0.8910 0.8890 0.8890
3.874000 0.8890 0.8890 0.8890 0.8890 0.8890
3.908213 0.8910 0.8910 0.8920 0.8920 0.8920
3.942000 0.8940 0.8940 0.8940 0.8940 0.8940
3.976213 0.8940 0.8940 0.8920 0.8920 0.8920
4.011000 0.8920 0.8910 0.8910 0.8910 0.8910
4.045213 0.8910 0.8910 0.8910 0.8910 0.8910
4.079000 0.8910 0.8910 0.8910 0.8910 0.8910
4.113213 0.8890 0.8890 0.8890 0.8890 0.8890
4.148000 0.8890 0.8890 0.8890 0.8890 0.8910
4.182213 0.8910 0.8910 0.8910 0.8910 0.8910
4.216000 0.8910 0.8910 0.8890 0.8890 0.8890
4.250213 0.8870 0.8860 0.8860 0.8840 0.8840
4.284000 0.8820 0.8800 0.8790 0.8790 0.8790
4.318213 0.8790 0.8790 0.8790 0.8800 0.8820
4.353000 0.8860 0.8860 0.8860 0.8860 0.8870
4.387213 0.8870 0.8870 0.8890 0.8890 0.8890
4.421000 0.8870 0.8870 0.8860 0.8860 0.8840
4.455213 0.8840 0.8860 0.8870 0.8890 0.8890
4.489000 0.8890 0.8890 0.8890 0.8910 0.8910
4.523213 0.8920 0.8920 0.8920 0.8920 0.8920
4.558000 0.8920 0.8920 0.8920 0.8920 0.8920
4.592213 0.8920 0.8920 0.8910 0.8890 0.8890
4.626000 0.8870 0.8860 0.8860 0.8870 0.8870
4.660213 0.8870 0.8870 0.8870 0.8890 0.8890
4.695000 0.8890 0.8910 0.8910 0.8910 0.8910
4.729213 0.8910 0.8910 0.8910 0.8910 0.8910
4.763000 0.8910 0.8910 0.8910 0.8910 0.8920
4.797213 0.8920 0.8920 0.8920 0.8920 0.8920
4.831000 0.8920 0.8920 0.8920 0.8920 0.8920
4.865213 0.8920 0.8910 0.8890 0.8890 0.8870
4.900000 0.8870 0.8870 0.8870 0.8870 0.8870
4.934213 0.8870 0.8890 0.8890 0.8890 0.8870
4.968000 0.8860 0.8860 0.8890 0.8910 0.8910
5.002213 0.8910 0.8920 0.8920 0.8920 0.8910
5.037000 0.8910 0.8890 0.8890 0.8870 0.8870
5.071213 0.8860 0.8860 0.8860 0.8860 0.8860
5.105000 0.8870 0.8870 0.8860 0.8860 0.8860
5.139213 0.8870 0.8870 0.8870 0.8870 0.8870
5.173000 0.8870 0.8870 0.8870 0.8870 0.8870
5.207213 0.8860 0.8860 0.8860 0.8860 0.8860
5.242000 0.8860 0.8860 0.8860 0.8860 0.8860
5.276213 0.8860 0.8860 0.8860 0.8860 0.8860
5.310000 0.8860 0.8860 0.8840 0.8840 0.8840
5.344213 0.8840 0.8840 0.8840 0.8840 0.8860
5.379000 0.8840 0.8840 0.8840 0.8840 0.8820
5.413213 0.8820 0.8820 0.8820 0.8820 0.8820
5.447000 0.8820 0.8820 0.8820 0.8820 0.8820
5.481213 0.8820 0.8820 0.8820 0.8840 0.8840
5.515000 0.8840 0.8840 0.8840 0.8840 0.8840
5.549213 0.8860 0.8860 0.8860 0.8860 0.8860
5.584000 0.8860 0.8860 0.8860 0.8860 0.8860
5.618213 0.8860 0.8860 0.8860 0.8840 0.8840
5.652000 0.8840 0.8840 0.8840 0.8840 0.8860
5.686213 0.8870 0.8870 0.8870 0.8870 0.8890
5.721000 0.8890 0.8890 0.8870 0.8870 0.8860
5.755213 0.8860 0.8860 0.8860 0.8860 0.8870
5.789000 0.8870 0.8870 0.8860 0.8860 0.8860
5.823213 0.8840 0.8840 0.8840 0.8820 0.8820
5.857000 0.8800 0.8800 0.8800 0.8790 0.8790
5.891213 0.8790 0.8790 0.8790 0.8790 0.8790
5.926000 0.8790 0.8800 0.8800 0.8800 0.8840
5.960213 0.8840 0.8840 0.8860 0.8860 0.8860
5.994000 0.8870 0.8870 0.8890 0.8890 0.8890
6.028213 0.8890 0.8910 0.8910 0.8910 0.8910
6.063000 0.8910 0.8910 0.8910 0.8910 0.8890
6.097213 0.8890 0.8870 0.8870 0.8860 0.8840
6.131000 0.8820 0.8800 0.8800 0.8800 0.8800
6.165213 0.8790 0.8790 0.8790 0.8770 0.8770
6.199000 0.8750 0.8740 0.8700 0.8690 0.8670
6.233213 0.8670 0.8650 0.8650 0.8600 0.8580
6.268000 0.8550 0.8500 0.8480 0.8460 0.8450
6.302213 0.8410 0.8400 0.8380 0.8360 0.8360
6.336000 0.8350 0.8350 0.8350 0.8350 0.8330
6.370213 0.8310 0.8310 0.8310 0.8240 0.8240
6.404000 0.8210 0.8160 0.8140 0.8120 0.8110
6.438213 0.8070 0.8060 0.8040 0.8040 0.8040
6.473000 0.8040 0.8040 0.8040 0.8060 0.8060
6.507213 0.8070 0.8070 0.8110 0.8120 0.8120
6.541000 0.8140 0.8140 0.8160 0.8180 0.8180
6.575213 0.8180 0.8190 0.8210 0.8230 0.8310
6.610000 0.8310 0.8380 0.8400 0.8410 0.8500
6.644213 0.8500 0.8580 0.8600 0.8620 0.8650
6.678000 0.8650 0.8650 0.8670 0.8690 0.8700
6.712213 0.8720 0.8740 0.8750 0.8750 0.8750
6.746000 0.8770 0.8770 0.8770 0.8770 0.8770
6.780213 0.8750 0.8740 0.8740 0.8720 0.8720
6.815000 0.8720 0.8720 0.8720 0.8720 0.8720
6.849213 0.8700 0.8700 0.8690 0.8670 0.8630
6.883000 0.8600 0.8570 0.8480 0.8480 0.8400
6.917213 0.8290 0.8240 0.8060 0.7890 0.7680
6.952000 0.7460 0.7260 0.7050 0.6880 0.6760
6.986213 0.6750 0.6780 0.6850 0.7070 0.7390
7.020000 0.7580 0.7750 0.7970 0.8280 0.8380
7.054213 0.8480 0.8500 0.8550 0.8570 0.8580
7.088000 0.8630 0.8650 0.8670 0.8690 0.8700
7.122213 0.8700 0.8720 0.8720 0.8720 0.8720
7.157000 0.8740 0.8740 0.8750 0.8770 0.8770
7.191213 0.8770 0.8770 0.8770 0.8750 0.8750
7.225000 0.8750 0.8750 0.8750 0.8740 0.8720
7.259213 0.8720 0.8720 0.8720 0.8720 0.8720
7.294000 0.8720 0.8720 0.8720 0.8720 0.8720
7.328213 0.8720 0.8720 0.8720 0.8740 0.8740
7.362000 0.8740 0.8750 0.8770 0.8790 0.8790
7.396213 0.8790 0.8790 0.8800 0.8800 0.8800
7.430000 0.8800 0.8800 0.8800 0.8800 0.8800
7.464213 0.8800 0.8800 0.8800 0.8800 0.8790
7.499000 0.8790 0.8790 0.8790 0.8790 0.8790
7.533213 0.8790 0.8790 0.8770 0.8770 0.8770
7.567000 0.8770 0.8790 0.8790 0.8790 0.8800
7.601213 0.8800 0.8820 0.8820 0.8840 0.8840
7.636000 0.8840 0.8840 0.8840 0.8840 0.8840
7.670213 0.8840 0.8800 0.8800 0.8800 0.8800
7.704000 0.8800 0.8800 0.8790 0.8790 0.8790
7.738213 0.8790 0.8790 0.8790 0.8790 0.8790
7.772000 0.8790 0.8790 0.8790 0.8770 0.8770
7.806213 0.8770 0.8770 0.8770 0.8790 0.8790
7.841000 0.8770 0.8770 0.8750 0.8700 0.8700
7.875213 0.8700 0.8700 0.8700 0.8700 0.8700
7.909000 0.8750 0.8750 0.8750 0.8770 0.8770
7.943213 0.8770 0.8750 0.8750 0.8750 0.8750
7.978000 0.8720 0.8720 0.8700 0.8650 0.8630
8.012213 0.8600 0.8580 0.8570 0.8500 0.8480
8.046000 0.8450 0.8410 0.8410 0.8400 0.8400
8.080213 0.8400 0.8410 0.8410 0.8480 0.8500
8.114000 0.8570 0.8600 0.8670 0.8700 0.8720
8.148213 0.8720 0.8740 0.8740 0.8740 0.8740
8.183000 0.8740 0.8740 0.8740 0.8720 0.8700
8.217213 0.8700 0.8690 0.8630 0.8600 0.8570
8.251000 0.8450 0.8380 0.8180 0.8040 0.7950
8.285213 0.7680 0.7550 0.7340 0.7240 0.7140
8.319000 0.7070 0.7070 0.7090 0.7140 0.7220
8.353213 0.7440 0.7780 0.7940 0.8070 0.8160
8.388000 0.8240 0.8360 0.8400 0.8450 0.8460
8.422213 0.8480 0.8500 0.8520 0.8530 0.8550
8.456000 0.8580 0.8600 0.8620 0.8620 0.8620
8.490213 0.8630 0.8630 0.8630 0.8630 0.8630
8.525000 0.8630 0.8620 0.8600 0.8580 0.8570
8.559213 0.8550 0.8460 0.8430 0.8350 0.8240
8.593000 0.8160 0.8140 0.8110 0.8090 0.8090
8.627213 0.8090 0.8090 0.8110 0.8120 0.8140
8.661000 0.8140 0.8140 0.8140 0.8110 0.7990
8.695213 0.7840 0.7680 0.7580 0.7440 0.7270
8.730000 0.7040 0.6680 0.6440 0.5980 0.5470
8.764213 0.5170 0.4250 0.3690 0.3120 0.2560
8.798000 0.2150 0.1970 0.1390 0.1390 0.1590
8.832213 0.1970 0.2390 0.3360 0.4210 0.5050
8.867000 0.5780 0.6460 0.6980 0.7290 0.7580
8.901213 0.7770 0.7890 0.7990 0.8180 0.8290
8.935000 0.8290 0.8380 0.8400 0.8450 0.8480
8.969213 0.8500 0.8530 0.8550 0.8580 0.8630
9.003000 0.8670 0.8690 0.8690 0.8700 0.8700
9.037213 0.8700 0.8740 0.8740 0.8740 0.8740
9.072000 0.8750 0.8750 0.8750 0.8740 0.8740
9.106213 0.8740 0.8740 0.8740 0.8740 0.8720
9.140000 0.8720 0.8700 0.8700 0.8700 0.8700
9.174213 0.8690 0.8690 0.8670 0.8670 0.8670
9.209000 0.8670 0.8650 0.8650 0.8650 0.8650
9.243213 0.8670 0.8670 0.8700 0.8700 0.8740
9.277000 0.8750 0.8750 0.8750 0.8750 0.8750
9.311213 0.8740 0.8740 0.8740 0.8720 0.8720
9.345000 0.8700 0.8700 0.8700 0.8700 0.8700
9.379213 0.8700 0.8700 0.8700 0.8720 0.8720
9.414000 0.8720 0.8700 0.8700 0.8690 0.8690
9.448213 0.8670 0.8670 0.8650 0.8600 0.8580
9.482000 0.8550 0.8530 0.8520 0.8480 0.8480
9.516213 0.8460 0.8460 0.8450 0.8450 0.8460
9.551000 0.8460 0.8500 0.8500 0.8580 0.8600
9.585213 0.8650 0.8670 0.8700 0.8700 0.8740
9.619000 0.8750 0.8770 0.8790 0.8800 0.8800
9.653213 0.8800 0.8800 0.8800 0.8820 0.8840
9.687000 0.8860 0.8870 0.8870 0.8890 0.8890
9.721213 0.8910 0.8910 0.8920 0.8960 0.8970
9.756000 0.8970 0.8970 0.8970 0.8990 0.8990
9.790213 0.8970 0.8970 0.8970 0.8970 0.8970
9.824000 0.8970 0.8970 0.8970 0.8970 0.8970
9.858213 0.8970 0.8970 0.8970 0.8970 0.8970
9.893000 0.8970 0.8970 0.8990 0.8990 0.8990
9.927213 0.8990 0.8990 0.8990 0.8990 0.8990
9.961000 0.8990 0.8990 0.9010 0.9010 0.9010
9.995213 0.9010 0.9010 0.9010 0.9010 0.9010
10.029000 0.9010 0.9010 0.9010 0.9010 0.9010
10.063213 0.9030 0.9040 0.9040 0.9040 0.9060
10.098000 0.9060 0.9080 0.9080 0.9080 0.9080
10.132213 0.9080 0.9080 0.9080 0.9080 0.9080
10.166000 0.9080 0.9080 0.9080 0.9090 0.9090
10.200213 0.9090 0.9090 0.9090 0.9090 0.9090
10.234000 0.9090 0.9080 0.9080 0.9080 0.9060
10.268213 0.9080 0.9060 0.9060 0.9060 0.9080
10.303000 0.9080 0.9080 0.9080 0.9080 0.9080
10.337213 0.9080 0.9080 0.9060 0.9060 0.9060
10.371000 0.9060 0.9060 0.9060 0.9060 0.9060
10.405213 0.9080 0.9060 0.9060 0.9060 0.9060
10.440000 0.9060 0.9060 0.9060 0.9040 0.9060
10.474213 0.9060 0.9060 0.9080 0.9080 0.9090
10.508000 0.9090 0.9090 0.9090 0.9090 0.9090
10.542213 0.9090 0.9090 0.9110 0.9110 0.9110
10.576000 0.9090 0.9090 0.9090 0.9090 0.9090
10.610213 0.9090 0.9090 0.9090 0.9090 0.9110
10.645000 0.9110 0.9110 0.9110 0.9110 0.9110
10.679213 0.9110 0.9110 0.9110 0.9110 0.9110
10.713000 0.9110 0.9110 0.9090 0.9080 0.9080
10.747213 0.9060 0.9080 0.9080 0.9090 0.9090
10.782000 0.9110 0.9110 0.9110 0.9110 0.9110
10.816213 0.9110 0.9110 0.9110 0.9110 0.9110
10.850000 0.9090 0.9090 0.9090 0.9090 0.9090
10.884213 0.9090 0.9090 0.9090 0.9090 0.9090
10.918000 0.9090 0.9090 0.9090 0.9090 0.9090
10.952213 0.9090 0.9090 0.9090 0.9090 0.9090
10.987000 0.9090 0.9090 0.9090 0.9090 0.9090
11.021213 0.9090 0.9090 0.9110 0.9110 0.9110
11.055000 0.9110 0.9110 0.9110 0.9110 0.9110
11.089213 0.9110 0.9110 0.9110 0.9110 0.9110
11.124000 0.9110 0.9110 0.9110 0.9110 0.9110
11.158213 0.9090 0.9090 0.9090 0.9090 0.9090
11.192000 0.9090 0.9090 0.9110 0.9110 0.9110
11.226213 0.9090 0.9090 0.9090 0.9090 0.9090
11.260000 0.9090 0.9090 0.9090 0.9090 0.9090
11.294213 0.9080 0.9080 0.9080 0.9080 0.9040
11.329000 0.9010 0.9010 0.8990 0.8990 0.8970
11.363213 0.8940 0.8940 0.8920 0.8920 0.8910
11.397000 0.8910 0.8910 0.8890 0.8890 0.8890
11.431213 0.8890 0.8890 0.8890 0.8890 0.8890
11.466000 0.8870 0.8870 0.8870 0.8870 0.8870
11.500213 0.8860 0.8860 0.8860 0.8840 0.8840
11.534000 0.8800 0.8790 0.8790 0.8770 0.8770
11.568213 0.8770 0.8750 0.8750 0.8750 0.8750
11.602000 0.8750 0.8750 0.8770 0.8770 0.8770
11.636213 0.8770 0.8770 0.8770 0.8750 0.8750
11.671000 0.8750 0.8750 0.8750 0.8740 0.8740
11.705213 0.8740 0.8740 0.8740 0.8750 0.8750
11.739000 0.8750 0.8750 0.8770 0.8770 0.8770
11.773213 0.8770 0.8770 0.8790 0.8790 0.8820
11.808000 0.8860 0.8860 0.8870 0.8870 0.8890
11.842213 0.8910 0.8940 0.8940 0.8960 0.8970
11.876000 0.8970 0.8970 0.8970 0.8970 0.8970
11.910213 0.8990 0.8990 0.8990 0.9040 0.9040
11.944000 0.9040 0.9060 0.9060 0.9060 0.9060
11.978213 0.9060 0.9060 0.9060 0.9060 0.9060
12.013000 0.9060 0.9060 0.9060 0.9080 0.9090
12.047213 0.9090 0.9090 0.9090 0.9090 0.9080
12.081000 0.9060 0.9060 0.9060 0.9060 0.9060
12.115213 0.9060 0.9060 0.9060 0.9060 0.9060
12.149000 0.9060 0.9060 0.9060 0.9060 0.9060
12.183213 0.9060 0.9060 0.9060 0.9060 0.9080
12.218000 0.9080 0.9090 0.9090 0.9090 0.9090
12.252213 0.9110 0.9110 0.9110 0.9130 0.9130
12.286000 0.9130 0.9130 0.9130 0.9130 0.9130
12.320213 0.9130 0.9130 0.9130 0.9130 0.9130
12.355000 0.9130 0.9130 0.9130 0.9130 0.9130
12.389213 0.9130 0.9130 0.9130 0.9110 0.9110
12.423000 0.9110 0.9110 0.9110 0.9090 0.9090
12.457213 0.9090 0.9090 0.9090 0.9090 0.9080
12.491000 0.9080 0.9080 0.9080 0.9080 0.9080
12.525213 0.9080 0.9080 0.9060 0.9060 0.9060
12.560000 0.9040 0.9040 0.9040 0.9040 0.9030
12.594213 0.9030 0.9010 0.9010 0.9010 0.8990
12.628000 0.8990 0.8990 0.8990 0.8990 0.8990
12.662213 0.8990 0.8990 0.8990 0.8970 0.8960
12.697000 0.8940 0.8920 0.8910 0.8860 0.8800
12.731213 0.8800 0.8790 0.8750 0.8700 0.8690
12.765000 0.8670 0.8670 0.8670 0.8670 0.8650
12.799213 0.8650 0.8650 0.8650 0.8650 0.8650
12.833000 0.8670 0.8690 0.8700 0.8770 0.8790
12.867213 0.8800 0.8820 0.8820 0.8840 0.8860
12.902000 0.8840 0.8870 0.8890 0.8920 0.8920
12.936213 0.8920 0.8940 0.8940 0.8940 0.8940
12.970000 0.8960 0.8960 0.8960 0.8940 0.8940
13.004213 0.8940 0.8940 0.8960 0.8960 0.8960
13.039000 0.8940 0.8940 0.8940 0.8940 0.8940
13.073213 0.8940 0.8960 0.8960 0.8960 0.8960
13.107000 0.8960 0.8960 0.8960 0.8960 0.8960
13.141213 0.8960 0.8960 0.8940 0.8940 0.8940
13.175000 0.8920 0.8910 0.8910 0.8890 0.8890
13.209213 0.8870 0.8870 0.8870 0.8870 0.8870
13.244000 0.8870 0.8870 0.8860 0.8860 0.8860
13.278213 0.8860 0.8860 0.8860 0.8860 0.8840
13.312000 0.8820 0.8820 0.8800 0.8800 0.8800
13.346213 0.8800 0.8800 0.8800 0.8800 0.8800
13.381000 0.8800 0.8800 0.8800 0.8800 0.8790
13.415213 0.8790 0.8790 0.8790 0.8790 0.8770
13.449000 0.8770 0.8770 0.8750 0.8750 0.8750
13.483213 0.8740 0.8700 0.8700 0.8690 0.8670
13.517000 0.8650 0.8630 0.8630 0.8620 0.8600
13.551213 0.8600 0.8580 0.8550 0.8530 0.8520
13.586000 0.8480 0.8460 0.8450 0.8400 0.8360
13.620213 0.8350 0.8290 0.8260 0.8260 0.8210
13.654000 0.8190 0.8180 0.8160 0.8140 0.8110
13.688213 0.8060 0.8040 0.8010 0.7990 0.7970
13.723000 0.7950 0.7900 0.7870 0.7840 0.7800
13.757213 0.7780 0.7770 0.7770 0.7750 0.7730
13.791000 0.7730 0.7730 0.7730 0.7730 0.7730
13.825213 0.7750 0.7750 0.7770 0.7780 0.7800
13.859000 0.7870 0.7900 0.7970 0.7990 0.8010
13.893213 0.8060 0.8070 0.8090 0.8110 0.8120
13.928000 0.8160 0.8160 0.8190 0.8190 0.8240
13.962213 0.8260 0.8260 0.8280 0.8280 0.8290
13.996000 0.8310 0.8310 0.8310 0.8330 0.8350
14.030213 0.8360 0.8400 0.8430 0.8450 0.8460
14.064000 0.8500 0.8520 0.8530 0.8550 0.8570
14.098213 0.8580 0.8600 0.8600 0.8630 0.8630
14.133000 0.8650 0.8650 0.8670 0.8670 0.8670
14.167213 0.8670 0.8670 0.8670 0.8690 0.8690
14.201000 0.8700 0.8700 0.8700 0.8750 0.8750
14.235213 0.8770 0.8770 0.8770 0.8770 0.8790
14.270000 0.8790 0.8790 0.8790 0.8790 0.8790
14.304213 0.8790 0.8790 0.8790 0.8800 0.8800
14.338000 0.8840 0.8840 0.8840 0.8800 0.8800
14.372213 0.8800 0.8790 0.8770 0.8770 0.8770
14.406000 0.8790 0.8790 0.8800 0.8860 0.8860
14.440213 0.8860 0.8860 0.8840 0.8820 0.8820
14.475000 0.8820 0.8790 0.8790 0.8820 0.8840
14.509213 0.8860 0.8860 0.8860 0.8860 0.8860
14.543000 0.8860 0.8860 0.8860 0.8860 0.8840
14.577213 0.8840 0.8820 0.8800 0.8800 0.8800
14.612000 0.8820 0.8820 0.8820 0.8820 0.8820
14.646213 0.8820 0.8820 0.8820 0.8800 0.8800
14.680000 0.8800 0.8800 0.8800 0.8790 0.8800
14.714213 0.8790 0.8790 0.8790 0.8790 0.8790
14.748000 0.8790 0.8790 0.8790 0.8790 0.8790
14.782213 0.8790 0.8790 0.8790 0.8790 0.8770
14.817000 0.8770 0.8770 0.8770 0.8790 0.8790
14.851213 0.8770 0.8770 0.8770 0.8770 0.8770
14.885000 0.8790 0.8790 0.8790 0.8790 0.8790
14.919213 0.8790 0.8790 0.8790 0.8790 0.8790
14.954000 0.8770 0.8770 0.8770 0.8770 0.8770
14.988213 0.8770 0.8770 0.8770 0.8750 0.8750
15.022000 0.8750 0.8750 0.8740 0.8740 0.8740
15.056213 0.8720 0.8700 0.8690 0.8690 0.8690
15.090000 0.8690 0.8690 0.8670 0.8650 0.8620
15.124213 0.8620 0.8600 0.8600 0.8580 0.8580
15.159000 0.8580 0.8580 0.8580 0.8600 0.8600
15.193213 0.8600 0.8620 0.8620 0.8620 0.8600
15.227000 0.8600 0.8600 0.8580 0.8580 0.8580
15.261213 0.8580 0.8580 0.8580 0.8570 0.8570
15.296000 0.8570 0.8570 0.8570 0.8570 0.8570
15.330213 0.8570 0.8570 0.8570 0.8570 0.8570
15.364000 0.8570 0.8570 0.8570 0.8570 0.8550
15.398213 0.8530 0.8520 0.8500 0.8500 0.8500
15.432000 0.8500 0.8500 0.8480 0.8480 0.8480
15.466213 0.8460 0.8460 0.8460 0.8460 0.8460
15.501000 0.8460 0.8460 0.8460 0.8460 0.8460
15.535213 0.8460 0.8460 0.8460 0.8460 0.8460
15.569000 0.8460 0.8460 0.8450 0.8450 0.8450
15.603213 0.8450 0.8450 0.8430 0.8430 0.8430
15.638000 0.8430 0.8430 0.8430 0.8430 0.8410
15.672213 0.8410 0.8410 0.8410 0.8410 0.8410
15.706000 0.8410 0.8410 0.8410 0.8410 0.8410
15.740213 0.8400 0.8400 0.8400 0.8400 0.8400
15.774000 0.8400 0.8400 0.8400 0.8410 0.8430
15.808213 0.8430 0.8450 0.8450 0.8460 0.8460
15.843000 0.8480 0.8480 0.8480 0.8480 0.8480
##END=
