##TITLE=3-Buten-1-ol
##JCAMP-DX=4.24
##DATA TYPE=INFRARED SPECTRUM
##ORIGIN=NIST Mass Spectrometry Data Center
##OWNER=NIST Standard Reference Data Program
Collection (C) 2018 copyright by the U.S. Secretary of Commerce
on behalf of the United States of America. All rights reserved.
##CAS REGISTRY NO=627-27-0
##MOLFORM=C 4 H 8 O
##$NIST SOURCE=MSDC-IR
##SPECTROMETER/DATA SYSTEM=HP-GC/MS/IRD
##STATE=gas
##XUNITS=1/CM
##YUNITS=ABSORBANCE
##XFACTOR=1.0
##YFACTOR=0.000003200
##DELTAX=4.0
##FIRSTX=550.0
##LASTX=3846.0
##FIRSTY=0.000861
##MAXX=3846
##MINX=550
##MAXY=0.032
##MINY=0
##NPOINTS=825
##XYDATA=(X++(Y..Y))
550.0 269 250 233 218 209 233 233 195 202 233
590.0 256 288 324 389 479 539 594 656 705 730
630.0 754 782 811 805 763 714 656 603 540 460
670.0 407 369 301 250 224 200 178 156 144 132
710.0 104 87 87 77 44 42 39 9 26 44
750.0 40 41 39 46 48 36 57 72 70 96
790.0 114 125 149 170 219 281 306 338 394 438
830.0 497 591 688 784 874 963 1054 1138 1206 1260
870.0 1330 1405 1502 1608 1698 1844 2059 2321 2616 2928
910.0 3225 3491 3615 3576 3537 3452 3261 2982 2708 2492
950.0 2367 2357 2430 2566 2759 2988 3216 3420 3591 3739
990.0 3920 4096 4190 4253 4352 4541 4848 5291 5924 6736
1030.0 7677 8611 9356 9811 10000 9947 9542 8703 7599 6482
1070.0 5450 4519 3720 3052 2510 2087 1783 1558 1390 1267
1110.0 1174 1098 1033 994 960 924 898 894 898 907
1150.0 927 950 976 1019 1079 1130 1177 1231 1257 1259
1190.0 1274 1298 1308 1299 1293 1284 1253 1224 1208 1190
1230.0 1175 1146 1127 1124 1116 1111 1122 1137 1148 1161
1270.0 1167 1176 1179 1183 1184 1175 1158 1141 1120 1101
1310.0 1088 1075 1062 1054 1050 1054 1068 1084 1107 1144
1350.0 1200 1284 1408 1559 1723 1899 2048 2141 2195 2220
1390.0 2209 2156 2044 1896 1753 1627 1534 1476 1432 1397
1430.0 1355 1316 1286 1222 1134 1044 942 832 757 691
1470.0 628 568 521 475 431 389 342 285 233 194
1510.0 171 151 132 126 123 114 110 106 97 93
1550.0 96 100 93 83 79 85 88 92 102 118
1590.0 132 146 175 227 286 363 465 600 763 928
1630.0 1067 1145 1170 1170 1146 1102 990 795 568 385
1670.0 267 198 153 112 91 81 65 58 58 57
1710.0 51 47 37 35 34 20 14 11 10 14
1750.0 10 16 21 9 0 4 13 17 17 24
1790.0 27 32 46 62 80 103 141 187 238 292
1830.0 326 339 340 345 346 329 289 235 196 162
1870.0 127 105 87 77 75 69 63 63 69 66
1910.0 58 54 53 51 46 42 40 38 34 26
1950.0 27 33 37 38 44 49 51 51 53 55
1990.0 53 52 49 52 50 52 64 70 67 68
2030.0 67 65 71 76 76 72 77 80 79 86
2070.0 85 77 74 79 77 72 68 60 57 54
2110.0 50 47 41 36 35 30 25 26 28 24
2150.0 26 28 25 33 31 22 27 32 27 20
2190.0 14 16 21 23 19 14 17 20 23 29
2230.0 29 24 23 31 38 35 34 34 30 35
2270.0 42 43 46 49 48 47 44 44 44 42
2310.0 43 48 49 45 35 25 25 23 26 28
2350.0 30 25 18 23 29 38 41 37 38 38
2390.0 41 48 54 56 51 52 55 54 60 65
2430.0 58 57 63 64 60 61 59 55 55 58
2470.0 45 42 48 43 40 35 35 40 44 43
2510.0 39 39 41 46 48 49 45 46 48 43
2550.0 39 36 37 36 41 45 43 45 46 47
2590.0 49 43 45 52 61 77 83 80 82 84
2630.0 85 93 98 98 101 105 106 108 123 131
2670.0 133 145 159 163 169 175 181 193 207 220
2710.0 236 248 262 283 298 308 320 332 347 361
2750.0 371 381 390 396 396 408 425 434 447 461
2790.0 485 516 543 578 624 680 747 832 926 1040
2830.0 1174 1328 1493 1668 1878 2113 2369 2660 2982 3310
2870.0 3624 3922 4202 4443 4650 4842 5028 5219 5400 5584
2910.0 5774 5960 6166 6344 6451 6499 6504 6454 6324 6104
2950.0 5825 5533 5214 4888 4569 4282 4017 3755 3500 3263
2990.0 3029 2805 2620 2438 2242 2037 1827 1647 1498 1351
3030.0 1206 1089 1011 966 970 1002 1049 1135 1263 1428
3070.0 1630 1859 2043 2088 2088 2057 1937 1844 1655 1333
3110.0 1019 762 579 455 356 287 234 208 181 148
3150.0 128 117 106 97 87 73 66 68 66 53
3190.0 36 41 43 36 38 35 25 36 32 28
3230.0 26 12 21 33 35 32 27 26 28 21
3270.0 17 29 35 34 32 30 33 30 34 36
3310.0 28 26 27 29 30 31 28 30 41 43
3350.0 50 52 50 53 57 58 53 62 68 61
3390.0 60 58 55 56 65 69 68 72 58 60
3430.0 71 75 76 72 81 92 95 101 111 120
3470.0 108 109 119 119 123 122 116 113 122 124
3510.0 103 99 106 107 100 98 116 116 106 117
3550.0 122 114 121 123 116 113 111 126 145 158
3590.0 174 189 228 299 381 452 509 574 645 707
3630.0 774 849 938 1033 1150 1292 1425 1534 1595 1630
3670.0 1610 1528 1422 1292 1111 901 714 566 450 362
3710.0 294 236 218 205 166 158 157 132 129 127
3750.0 110 109 117 116 115 115 112 109 93 91
3790.0 97 92 88 78 79 83 80 84 92 97
3830.0 89 85 100 103 111
##END=
