##TITLE=1-BROMO-1,1-DICHLORO ETHANE
##JCAMP-DX=4.24
##DATA TYPE=INFRARED SPECTRUM
##CLASS=COBLENTZ
##ORIGIN=DOW CHEMICAL COMPANY
##OWNER=COBLENTZ SOCIETY
Collection (C) 2018 copyright by the U.S. Secretary of Commerce
on behalf of the United States of America. All rights reserved.
##DATE=Not specified, most likely prior to 1970
##NAMES=1-bromo-1,1-dichloroethane
##CAS REGISTRY NO=676-92-6
##MOLFORM=C2 H3 Br Cl2
##SOURCE REFERENCE=COBLENTZ NO. 1923
##$NIST SOURCE=COBLENTZ
##$NIST IMAGE=cob1923
##SPECTROMETER/DATA SYSTEM=Not specified, most likely a prism, grating, or hybrid spectrometer.
##STATE=SOLUTION (10% CCl4 FOR 5000-1330, 10% CS2 FOR 1330-625 CM^-^1)
##PATH LENGTH=0.0130 CM, 0.0129 CM
$$SPECTRAL CONTAMINATION DUE TO CS2 AROUND 850, AND CCl4 AROUND 1550 CM^-^1
##SAMPLING PROCEDURE=TRANSMISSION
##RESOLUTION=4
##DATA PROCESSING=DIGITIZED BY NIST FROM HARD COPY
##XUNITS=MICROMETERS
##YUNITS=TRANSMITTANCE
##XFACTOR=1.000000
##YFACTOR=1
##DELTAX=000.006866
##FIRSTX=2.027
##LASTX=15.9176
##FIRSTY=0.873
##MAXX=15.9176
##MINX=2.027
##MAXY=1.003
##MINY=0.003
##NPOINTS=2024
##XYDATA=(X++(Y..Y))
2.027000 0.8730 0.8730 0.8730 0.8730 0.8750
2.061348 0.8750 0.8750 0.8750 0.8750 0.8750
2.096000 0.8750 0.8750 0.8750 0.8770 0.8780
2.130348 0.8780 0.8800 0.8800 0.8800 0.8800
2.165000 0.8800 0.8800 0.8800 0.8800 0.8800
2.199348 0.8800 0.8800 0.8800 0.8800 0.8800
2.233000 0.8800 0.8800 0.8820 0.8820 0.8820
2.267348 0.8820 0.8850 0.8890 0.8920 0.8970
2.302000 0.8970 0.8970 0.8970 0.8970 0.8950
2.336348 0.8940 0.8940 0.8940 0.8940 0.8940
2.371000 0.8950 0.8970 0.8970 0.8970 0.8970
2.405348 0.8950 0.8950 0.8950 0.8950 0.8950
2.439000 0.8950 0.8950 0.8970 0.8970 0.8970
2.473348 0.8970 0.8950 0.8950 0.8970 0.9020
2.508000 0.9040 0.9060 0.9060 0.9070 0.9070
2.542348 0.9070 0.9070 0.9090 0.9110 0.9120
2.577000 0.9140 0.9140 0.9160 0.9160 0.9180
2.611348 0.9180 0.9180 0.9180 0.9180 0.9180
2.645000 0.9180 0.9180 0.9180 0.9190 0.9190
2.679348 0.9210 0.9210 0.9210 0.9210 0.9210
2.714000 0.9190 0.9190 0.9190 0.9190 0.9180
2.748348 0.9180 0.9180 0.9180 0.9180 0.9190
2.783000 0.9190 0.9210 0.9210 0.9190 0.9180
2.817348 0.9160 0.9140 0.9120 0.9110 0.9110
2.851000 0.9090 0.9060 0.9020 0.9010 0.8970
2.885348 0.8970 0.8950 0.8940 0.8920 0.8920
2.920000 0.8920 0.8920 0.8940 0.8940 0.8950
2.954348 0.8950 0.8950 0.8950 0.8950 0.8950
2.989000 0.8950 0.8970 0.8970 0.8990 0.8990
3.023348 0.9010 0.9010 0.9020 0.9020 0.9040
3.057000 0.9040 0.9060 0.9060 0.9070 0.9070
3.091348 0.9090 0.9090 0.9110 0.9110 0.9110
3.126000 0.9110 0.9120 0.9140 0.9180 0.9190
3.160348 0.9190 0.9210 0.9210 0.9210 0.9210
3.195000 0.9210 0.9210 0.9210 0.9210 0.9210
3.229348 0.9210 0.9210 0.9210 0.9210 0.9210
3.263000 0.9210 0.9230 0.9230 0.9230 0.9230
3.297348 0.9230 0.9140 0.9070 0.8970 0.8820
3.332000 0.8800 0.8800 0.8800 0.8820 0.8990
3.366348 0.9070 0.9160 0.9180 0.9160 0.9110
3.401000 0.9070 0.9060 0.9060 0.9070 0.9280
3.435348 0.9350 0.9360 0.9360 0.9360 0.9360
3.469000 0.9360 0.9360 0.9360 0.9380 0.9380
3.503348 0.9400 0.9400 0.9400 0.9430 0.9430
3.538000 0.9430 0.9450 0.9470 0.9480 0.9500
3.572348 0.9500 0.9530 0.9530 0.9520 0.9520
3.607000 0.9520 0.9520 0.9520 0.9520 0.9530
3.641348 0.9530 0.9550 0.9550 0.9550 0.9520
3.675000 0.9520 0.9520 0.9530 0.9530 0.9520
3.709348 0.9520 0.9520 0.9520 0.9520 0.9590
3.744000 0.9590 0.9590 0.9570 0.9570 0.9550
3.778348 0.9530 0.9550 0.9550 0.9570 0.9570
3.813000 0.9590 0.9570 0.9570 0.9570 0.9570
3.847348 0.9570 0.9590 0.9590 0.9600 0.9600
3.881000 0.9620 0.9620 0.9620 0.9620 0.9620
3.915348 0.9620 0.9600 0.9600 0.9600 0.9590
3.950000 0.9590 0.9590 0.9570 0.9520 0.9520
3.984348 0.9520 0.9520 0.9590 0.9650 0.9650
4.019000 0.9650 0.9650 0.9650 0.9650 0.9620
4.053348 0.9570 0.9500 0.9470 0.9470 0.9470
4.087000 0.9470 0.9480 0.9520 0.9600 0.9670
4.121348 0.9740 0.9760 0.9760 0.9720 0.9700
4.156000 0.9690 0.9690 0.9690 0.9690 0.9690
4.190348 0.9690 0.9690 0.9690 0.9690 0.9690
4.225000 0.9690 0.9690 0.9690 0.9690 0.9670
4.259348 0.9650 0.9640 0.9640 0.9620 0.9600
4.293000 0.9590 0.9570 0.9550 0.9530 0.9530
4.327348 0.9530 0.9530 0.9530 0.9530 0.9550
4.362000 0.9570 0.9570 0.9600 0.9600 0.9600
4.396348 0.9620 0.9690 0.9700 0.9760 0.9790
4.431000 0.9810 0.9820 0.9860 0.9860 0.9880
4.465348 0.9880 0.9890 0.9890 0.9890 0.9910
4.499000 0.9930 0.9930 0.9940 0.9960 0.9980
4.533348 0.9980 1.0000 1.0000 1.0000 1.0000
4.568000 1.0000 1.0000 1.0000 1.0000 1.0000
4.602348 1.0000 1.0000 1.0000 1.0000 1.0000
4.637000 1.0000 0.9980 0.9980 0.9980 0.9940
4.671348 0.9930 0.9930 0.9930 0.9910 0.9910
4.705000 0.9890 0.9840 0.9810 0.9720 0.9690
4.739348 0.9690 0.9690 0.9690 0.9690 0.9700
4.774000 0.9720 0.9760 0.9820 0.9860 0.9910
4.808348 0.9960 1.0000 1.0000 1.0010 1.0010
4.843000 1.0010 1.0010 1.0000 1.0000 1.0000
4.877348 1.0000 1.0000 0.9980 0.9980 0.9980
4.911000 0.9980 0.9980 0.9980 0.9980 0.9980
4.945348 1.0000 1.0000 1.0000 1.0000 1.0000
4.980000 1.0000 1.0000 1.0010 1.0010 1.0010
5.014348 1.0010 1.0010 1.0030 1.0030 1.0030
5.049000 1.0030 1.0030 1.0030 1.0030 1.0030
5.083348 1.0030 1.0030 1.0030 1.0030 1.0030
5.117000 1.0030 1.0030 1.0030 1.0030 1.0030
5.151348 1.0030 1.0030 1.0030 1.0030 1.0030
5.186000 1.0030 1.0030 1.0030 0.9650 0.9470
5.220348 0.9450 0.9430 0.9410 0.9410 0.9410
5.255000 0.9410 0.9410 0.9430 0.9430 0.9450
5.289348 0.9450 0.9450 0.9450 0.9430 0.9430
5.323000 0.9410 0.9400 0.9380 0.9380 0.9400
5.357348 0.9400 0.9400 0.9380 0.9380 0.9380
5.392000 0.9360 0.9350 0.9350 0.9350 0.9350
5.426348 0.9350 0.9380 0.9380 0.9400 0.9410
5.461000 0.9430 0.9430 0.9430 0.9430 0.9430
5.495348 0.9430 0.9410 0.9410 0.9410 0.9410
5.529000 0.9410 0.9410 0.9410 0.9410 0.9430
5.563348 0.9430 0.9410 0.9410 0.9410 0.9400
5.598000 0.9400 0.9400 0.9400 0.9400 0.9410
5.632348 0.9410 0.9410 0.9410 0.9430 0.9430
5.667000 0.9430 0.9430 0.9430 0.9430 0.9430
5.701348 0.9430 0.9410 0.9410 0.9410 0.9400
5.735000 0.9380 0.9380 0.9350 0.9350 0.9350
5.769348 0.9330 0.9330 0.9310 0.9310 0.9300
5.804000 0.9300 0.9300 0.9300 0.9300 0.9300
5.838348 0.9300 0.9300 0.9300 0.9300 0.9300
5.872000 0.9310 0.9300 0.9300 0.9300 0.9300
5.906348 0.9300 0.9300 0.9300 0.9300 0.9280
5.941000 0.9300 0.9300 0.9300 0.9280 0.9260
5.975348 0.9260 0.9240 0.9230 0.9210 0.9190
6.010000 0.9180 0.9180 0.9180 0.9180 0.9160
6.044348 0.9140 0.9140 0.9120 0.9090 0.9060
6.078000 0.9020 0.9010 0.8990 0.8970 0.8950
6.112348 0.8950 0.8940 0.8920 0.8900 0.8890
6.147000 0.8830 0.8800 0.8730 0.8700 0.8630
6.181348 0.8560 0.8430 0.8270 0.8190 0.8050
6.216000 0.7830 0.7780 0.7730 0.7440 0.7350
6.250348 0.7180 0.6990 0.6820 0.6720 0.6630
6.284000 0.6510 0.6430 0.6330 0.6260 0.6210
6.318348 0.6160 0.6140 0.6120 0.6050 0.5980
6.353000 0.5900 0.5760 0.5680 0.5590 0.5540
6.387348 0.5470 0.5400 0.5290 0.5110 0.4910
6.422000 0.4740 0.4590 0.4500 0.4480 0.4480
6.456348 0.4500 0.4530 0.4590 0.4690 0.4840
6.490000 0.5000 0.5170 0.5290 0.5420 0.5690
6.524348 0.5850 0.5930 0.6020 0.6100 0.6190
6.559000 0.6240 0.6340 0.6450 0.6580 0.6680
6.593348 0.6700 0.6860 0.7040 0.7200 0.7320
6.628000 0.7420 0.7550 0.7660 0.7780 0.7840
6.662348 0.7980 0.8020 0.8100 0.8130 0.8170
6.696000 0.8250 0.8370 0.8480 0.8530 0.8560
6.730348 0.8600 0.8630 0.8660 0.8700 0.8720
6.765000 0.8720 0.8720 0.8720 0.8720 0.8720
6.799348 0.8720 0.8720 0.8700 0.8680 0.8650
6.834000 0.8610 0.8560 0.8460 0.8360 0.8190
6.868348 0.7980 0.7730 0.7520 0.7230 0.6770
6.902000 0.6620 0.6390 0.6290 0.6190 0.6140
6.936348 0.6140 0.6220 0.6750 0.7250 0.7830
6.971000 0.8100 0.8190 0.8240 0.8250 0.8250
7.005348 0.8250 0.8240 0.8220 0.8200 0.8170
7.040000 0.8150 0.8130 0.8130 0.8130 0.8130
7.074348 0.8130 0.8150 0.8170 0.8190 0.8220
7.108000 0.8240 0.8270 0.8340 0.8340 0.8370
7.142348 0.8370 0.8390 0.8390 0.8370 0.8320
7.177000 0.8250 0.8120 0.7810 0.7670 0.7370
7.211348 0.6990 0.6630 0.6430 0.6260 0.5980
7.246000 0.5800 0.5780 0.5810 0.6170 0.6580
7.280348 0.6920 0.8360 0.8580 0.8630 0.8660
7.314000 0.8660 0.8680 0.8680 0.8700 0.8780
7.348348 0.8800 0.8850 0.8900 0.8900 0.8940
7.383000 0.8970 0.8970 0.8990 0.8990 0.8990
7.417348 0.8990 0.8990 0.8990 0.8990 0.8990
7.452000 0.8990 0.8990 0.8990 0.8990 0.8990
7.486348 0.8990 0.8990 0.8990 0.8990 0.8990
7.520000 0.8990 0.8990 0.8990 0.8990 0.8970
7.554348 0.8970 0.8970 0.8970 0.8970 0.8950
7.589000 0.8950 0.8950 0.8950 0.8950 0.8950
7.623348 0.8950 0.8950 0.8950 0.8950 0.8950
7.658000 0.8950 0.8950 0.8950 0.8950 0.8950
7.692348 0.8950 0.8950 0.8950 0.8950 0.8950
7.726000 0.8950 0.8950 0.8950 0.8950 0.8950
7.760348 0.8950 0.8950 0.8950 0.8950 0.8950
7.795000 0.8950 0.8950 0.8950 0.8950 0.8950
7.829348 0.8950 0.8950 0.8950 0.8950 0.8950
7.864000 0.8950 0.8950 0.8950 0.8950 0.8950
7.898348 0.8950 0.8950 0.8950 0.8950 0.8950
7.932000 0.8950 0.8950 0.8950 0.8950 0.8950
7.966348 0.8950 0.8950 0.8950 0.8950 0.8950
8.001000 0.8950 0.8950 0.8950 0.8950 0.8950
8.035348 0.8950 0.8950 0.8950 0.8950 0.8950
8.070000 0.8950 0.8950 0.8970 0.8970 0.8970
8.104348 0.8970 0.8970 0.8970 0.8970 0.8970
8.138000 0.8970 0.8970 0.8970 0.8970 0.8950
8.172348 0.8950 0.8950 0.8940 0.8940 0.8940
8.207000 0.8940 0.8940 0.8940 0.8940 0.8940
8.241348 0.8940 0.8940 0.8940 0.8940 0.8940
8.276000 0.8940 0.8920 0.8900 0.8900 0.8900
8.310348 0.8890 0.8890 0.8890 0.8870 0.8850
8.344000 0.8830 0.8780 0.8780 0.8770 0.8750
8.378348 0.8750 0.8730 0.8730 0.8730 0.8730
8.413000 0.8730 0.8730 0.8730 0.8750 0.8770
8.447348 0.8770 0.8770 0.8770 0.8770 0.8780
8.482000 0.8780 0.8780 0.8780 0.8780 0.8780
8.516348 0.8780 0.8780 0.8780 0.8780 0.8780
8.550000 0.8780 0.8770 0.8770 0.8770 0.8750
8.584348 0.8750 0.8730 0.8720 0.8720 0.8700
8.619000 0.8610 0.8610 0.8600 0.8560 0.8540
8.653348 0.8540 0.8530 0.8530 0.8510 0.8510
8.688000 0.8510 0.8510 0.8490 0.8490 0.8490
8.722348 0.8510 0.8510 0.8510 0.8530 0.8540
8.756000 0.8560 0.8560 0.8600 0.8610 0.8630
8.790348 0.8630 0.8650 0.8650 0.8650 0.8630
8.825000 0.8610 0.8610 0.8600 0.8580 0.8580
8.859348 0.8560 0.8540 0.8540 0.8530 0.8530
8.894000 0.8530 0.8530 0.8510 0.8510 0.8490
8.928348 0.8480 0.8440 0.8440 0.8440 0.8430
8.962000 0.8410 0.8410 0.8360 0.8320 0.8310
8.996348 0.8270 0.8220 0.8120 0.8050 0.7980
9.031000 0.7960 0.7900 0.7790 0.7690 0.7620
9.065348 0.7540 0.7450 0.7370 0.7280 0.7230
9.100000 0.7210 0.7200 0.7180 0.7180 0.7180
9.134348 0.7180 0.7130 0.7110 0.6970 0.6860
9.168000 0.6740 0.6580 0.6390 0.6140 0.5810
9.202348 0.5390 0.4840 0.4280 0.3920 0.3310
9.237000 0.2810 0.2300 0.1820 0.1390 0.1000
9.271348 0.0690 0.0440 0.0290 0.0230 0.0230
9.306000 0.0230 0.0230 0.0230 0.0230 0.0230
9.340348 0.0290 0.0320 0.0490 0.0750 0.1050
9.374000 0.1410 0.1770 0.2090 0.2370 0.2540
9.408348 0.2740 0.2930 0.3100 0.3290 0.3490
9.443000 0.3730 0.4010 0.4330 0.4720 0.5200
9.477348 0.5610 0.5920 0.6190 0.6460 0.6740
9.512000 0.6970 0.7200 0.7380 0.7450 0.7520
9.546348 0.7610 0.7690 0.7790 0.7900 0.7960
9.580000 0.8000 0.8030 0.8050 0.8080 0.8100
9.614348 0.8120 0.8130 0.8150 0.8170 0.8190
9.649000 0.8190 0.8200 0.8200 0.8200 0.8220
9.683348 0.8220 0.8240 0.8240 0.8270 0.8290
9.718000 0.8290 0.8290 0.8310 0.8310 0.8320
9.752348 0.8340 0.8340 0.8370 0.8370 0.8410
9.786000 0.8430 0.8440 0.8460 0.8460 0.8480
9.820348 0.8490 0.8490 0.8490 0.8490 0.8490
9.855000 0.8490 0.8490 0.8490 0.8490 0.8490
9.889348 0.8490 0.8490 0.8480 0.8480 0.8460
9.923000 0.8440 0.8430 0.8430 0.8410 0.8410
9.957348 0.8410 0.8410 0.8410 0.8430 0.8430
9.992000 0.8440 0.8440 0.8460 0.8460 0.8480
10.026348 0.8480 0.8490 0.8490 0.8510 0.8540
10.061000 0.8560 0.8580 0.8610 0.8610 0.8630
10.095348 0.8630 0.8630 0.8630 0.8630 0.8650
10.129000 0.8650 0.8660 0.8660 0.8680 0.8680
10.163348 0.8700 0.8700 0.8700 0.8720 0.8720
10.198000 0.8720 0.8730 0.8730 0.8730 0.8730
10.232348 0.8730 0.8730 0.8750 0.8750 0.8770
10.267000 0.8770 0.8770 0.8770 0.8770 0.8770
10.301348 0.8770 0.8770 0.8770 0.8770 0.8770
10.335000 0.8770 0.8770 0.8770 0.8770 0.8770
10.369348 0.8770 0.8770 0.8770 0.8770 0.8770
10.404000 0.8770 0.8770 0.8750 0.8770 0.8770
10.438348 0.8770 0.8770 0.8770 0.8770 0.8770
10.473000 0.8770 0.8770 0.8770 0.8770 0.8780
10.507348 0.8800 0.8800 0.8800 0.8820 0.8820
10.541000 0.8820 0.8830 0.8830 0.8830 0.8850
10.575348 0.8850 0.8850 0.8870 0.8870 0.8890
10.610000 0.8890 0.8890 0.8900 0.8900 0.8900
10.644348 0.8900 0.8900 0.8900 0.8900 0.8900
10.679000 0.8900 0.8900 0.8900 0.8900 0.8900
10.713348 0.8900 0.8900 0.8900 0.8900 0.8900
10.747000 0.8900 0.8900 0.8900 0.8900 0.8900
10.781348 0.8890 0.8890 0.8890 0.8890 0.8890
10.816000 0.8890 0.8890 0.8890 0.8890 0.8890
10.850348 0.8890 0.8890 0.8890 0.8890 0.8890
10.885000 0.8890 0.8890 0.8890 0.8890 0.8890
10.919348 0.8870 0.8870 0.8870 0.8870 0.8870
10.953000 0.8870 0.8870 0.8870 0.8870 0.8870
10.987348 0.8870 0.8870 0.8870 0.8870 0.8870
11.022000 0.8870 0.8870 0.8870 0.8870 0.8870
11.056348 0.8870 0.8870 0.8850 0.8850 0.8850
11.091000 0.8850 0.8850 0.8820 0.8820 0.8820
11.125348 0.8800 0.8800 0.8780 0.8770 0.8770
11.159000 0.8730 0.8700 0.8660 0.8630 0.8630
11.193348 0.8610 0.8610 0.8600 0.8580 0.8560
11.228000 0.8510 0.8480 0.8460 0.8440 0.8410
11.262348 0.8390 0.8360 0.8320 0.8290 0.8270
11.297000 0.8220 0.8190 0.8150 0.8130 0.8100
11.331348 0.8070 0.8050 0.8030 0.8020 0.7980
11.365000 0.7950 0.7910 0.7900 0.7860 0.7810
11.399348 0.7810 0.7780 0.7760 0.7740 0.7730
11.434000 0.7710 0.7690 0.7670 0.7620 0.7620
11.468348 0.7610 0.7610 0.7590 0.7570 0.7540
11.503000 0.7470 0.7450 0.7420 0.7380 0.7380
11.537348 0.7370 0.7330 0.7330 0.7320 0.7300
11.571000 0.7260 0.7260 0.7250 0.7210 0.7180
11.605348 0.7160 0.7150 0.7110 0.7080 0.7030
11.640000 0.7030 0.7010 0.6970 0.6960 0.6940
11.674348 0.6920 0.6920 0.6920 0.6920 0.6920
11.709000 0.6920 0.6940 0.6940 0.6960 0.6960
11.743348 0.6970 0.6990 0.7030 0.7080 0.7110
11.777000 0.7160 0.7200 0.7250 0.7300 0.7350
11.811348 0.7420 0.7470 0.7520 0.7570 0.7610
11.846000 0.7640 0.7690 0.7740 0.7810 0.7880
11.880348 0.7930 0.7950 0.7980 0.8000 0.8020
11.915000 0.8030 0.8050 0.8070 0.8100 0.8120
11.949348 0.8130 0.8150 0.8170 0.8190 0.8200
11.983000 0.8220 0.8220 0.8250 0.8270 0.8290
12.017348 0.8310 0.8320 0.8320 0.8320 0.8340
12.052000 0.8360 0.8360 0.8360 0.8360 0.8360
12.086348 0.8360 0.8360 0.8360 0.8340 0.8320
12.121000 0.8320 0.8320 0.8310 0.8310 0.8310
12.155348 0.8310 0.8310 0.8310 0.8310 0.8310
12.189000 0.8290 0.8290 0.8290 0.8270 0.8270
12.223348 0.8270 0.8270 0.8270 0.8270 0.8290
12.258000 0.8290 0.8290 0.8290 0.8290 0.8290
12.292348 0.8290 0.8290 0.8310 0.8310 0.8310
12.327000 0.8310 0.8310 0.8310 0.8290 0.8290
12.361348 0.8290 0.8270 0.8270 0.8270 0.8270
12.395000 0.8270 0.8250 0.8250 0.8250 0.8250
12.429348 0.8240 0.8240 0.8240 0.8240 0.8240
12.464000 0.8240 0.8240 0.8240 0.8240 0.8240
12.498348 0.8240 0.8220 0.8220 0.8220 0.8220
12.533000 0.8220 0.8200 0.8200 0.8200 0.8200
12.567348 0.8200 0.8190 0.8190 0.8190 0.8170
12.601000 0.8170 0.8170 0.8150 0.8150 0.8130
12.635348 0.8130 0.8120 0.8120 0.8120 0.8120
12.670000 0.8120 0.8100 0.8100 0.8080 0.8080
12.704348 0.8070 0.8050 0.8050 0.8030 0.8020
12.739000 0.8020 0.8020 0.8020 0.8020 0.8020
12.773348 0.8000 0.8000 0.8000 0.8000 0.8000
12.807000 0.7980 0.7980 0.7980 0.7980 0.7980
12.841348 0.7980 0.7980 0.7980 0.7980 0.7980
12.876000 0.7980 0.7960 0.7960 0.7960 0.7950
12.910348 0.7950 0.7950 0.7950 0.7950 0.7950
12.945000 0.7930 0.7910 0.7900 0.7900 0.7880
12.979348 0.7880 0.7880 0.7880 0.7860 0.7840
13.013000 0.7840 0.7840 0.7830 0.7830 0.7830
13.047348 0.7830 0.7830 0.7830 0.7830 0.7830
13.082000 0.7830 0.7830 0.7840 0.7840 0.7840
13.116348 0.7830 0.7830 0.7810 0.7810 0.7810
13.151000 0.7790 0.7790 0.7780 0.7780 0.7780
13.185348 0.7760 0.7760 0.7740 0.7740 0.7730
13.219000 0.7710 0.7710 0.7670 0.7670 0.7670
13.253348 0.7660 0.7660 0.7660 0.7660 0.7660
13.288000 0.7660 0.7660 0.7640 0.7640 0.7640
13.322348 0.7620 0.7620 0.7620 0.7620 0.7610
13.357000 0.7610 0.7570 0.7570 0.7570 0.7550
13.391348 0.7550 0.7550 0.7520 0.7520 0.7490
13.425000 0.7490 0.7470 0.7470 0.7470 0.7450
13.459348 0.7450 0.7450 0.7420 0.7400 0.7380
13.494000 0.7380 0.7370 0.7350 0.7330 0.7320
13.528348 0.7280 0.7280 0.7250 0.7200 0.7200
13.563000 0.7160 0.7130 0.7130 0.7080 0.7040
13.597348 0.7010 0.6990 0.6970 0.6940 0.6910
13.631000 0.6890 0.6870 0.6840 0.6800 0.6770
13.665348 0.6720 0.6670 0.6620 0.6550 0.6480
13.700000 0.6410 0.6360 0.6290 0.6210 0.6140
13.734348 0.6070 0.6000 0.5930 0.5850 0.5750
13.769000 0.5680 0.5610 0.5540 0.5470 0.5390
13.803348 0.5290 0.5150 0.4980 0.4910 0.4810
13.837000 0.4690 0.4550 0.4400 0.4210 0.4040
13.871348 0.3830 0.3630 0.3410 0.3190 0.2950
13.906000 0.2730 0.2500 0.2260 0.2040 0.1840
13.940348 0.1620 0.1410 0.1220 0.1070 0.0950
13.974000 0.0850 0.0750 0.0660 0.0560 0.0420
14.008348 0.0340 0.0230 0.0150 0.0100 0.0060
14.043000 0.0060 0.0050 0.0050 0.0030 0.0030
14.077348 0.0030 0.0050 0.0050 0.0050 0.0050
14.112000 0.0080 0.0080 0.0110 0.0150 0.0180
14.146348 0.0230 0.0270 0.0340 0.0400 0.0470
14.180000 0.0540 0.0640 0.0730 0.0850 0.0950
14.214348 0.1050 0.1160 0.1260 0.1360 0.1460
14.249000 0.1560 0.1670 0.1770 0.1890 0.1990
14.283348 0.2090 0.2200 0.2300 0.2400 0.2490
14.318000 0.2590 0.2670 0.2760 0.2840 0.2930
14.352348 0.3020 0.3080 0.3150 0.3200 0.3250
14.386000 0.3290 0.3320 0.3370 0.3390 0.3460
14.420348 0.3480 0.3490 0.3490 0.3510 0.3540
14.455000 0.3560 0.3610 0.3630 0.3650 0.3660
14.489348 0.3660 0.3680 0.3680 0.3700 0.3720
14.524000 0.3720 0.3730 0.3730 0.3750 0.3750
14.558348 0.3750 0.3750 0.3750 0.3730 0.3700
14.592000 0.3660 0.3660 0.3650 0.3610 0.3580
14.626348 0.3580 0.3540 0.3530 0.3490 0.3460
14.661000 0.3410 0.3370 0.3310 0.3250 0.3150
14.695348 0.3100 0.3000 0.2900 0.2760 0.2660
14.730000 0.2590 0.2500 0.2400 0.2300 0.2200
14.764348 0.2090 0.1990 0.1890 0.1790 0.1680
14.798000 0.1560 0.1430 0.1290 0.1170 0.1090
14.832348 0.1020 0.0970 0.0920 0.0880 0.0830
14.867000 0.0800 0.0760 0.0660 0.0610 0.0590
14.901348 0.0540 0.0510 0.0470 0.0470 0.0440
14.936000 0.0440 0.0420 0.0420 0.0420 0.0420
14.970348 0.0420 0.0420 0.0420 0.0420 0.0420
15.004000 0.0420 0.0420 0.0420 0.0420 0.0420
15.038348 0.0420 0.0420 0.0420 0.0420 0.0440
15.073000 0.0440 0.0440 0.0440 0.0470 0.0470
15.107348 0.0510 0.0540 0.0630 0.0680 0.0760
15.142000 0.0850 0.0950 0.1040 0.1100 0.1190
15.176348 0.1260 0.1330 0.1390 0.1460 0.1550
15.210000 0.1630 0.1720 0.1820 0.1940 0.2060
15.244348 0.2130 0.2200 0.2280 0.2370 0.2470
15.279000 0.2570 0.2660 0.2740 0.2840 0.2910
15.313348 0.2980 0.3030 0.3070 0.3100 0.3130
15.348000 0.3170 0.3240 0.3290 0.3340 0.3370
15.382348 0.3430 0.3480 0.3510 0.3560 0.3600
15.416000 0.3610 0.3650 0.3680 0.3720 0.3750
15.450348 0.3780 0.3800 0.3820 0.3850 0.3850
15.485000 0.3890 0.3920 0.3940 0.3970 0.4010
15.519348 0.4020 0.4040 0.4040 0.4070 0.4070
15.554000 0.4110 0.4120 0.4120 0.4140 0.4160
15.588348 0.4160 0.4180 0.4190 0.4210 0.4230
15.622000 0.4230 0.4260 0.4260 0.4260 0.4280
15.656348 0.4280 0.4280 0.4280 0.4280 0.4300
15.691000 0.4300 0.4300 0.4300 0.4300 0.4300
15.725348 0.4310 0.4310 0.4350 0.4350 0.4350
15.760000 0.4350 0.4350 0.4350 0.4350 0.4360
15.794348 0.4360 0.4360 0.4360 0.4360 0.4360
15.828000 0.4360 0.4380 0.4380 0.4380 0.4380
15.862348 0.4380 0.4380 0.4380 0.4380 0.4380
15.897000 0.4380 0.4380 0.4380 0.4380
##END=
