##TITLE=Propargyl ethyl sulphide
##JCAMP-DX=4.24
##DATA TYPE=INFRARED SPECTRUM
##ORIGIN=EPA-IR VAPOR PHASE LIBRARY
##OWNER=SRD/NIST
Collection (C) 2018 copyright by the U.S. Secretary of Commerce
on behalf of the United States of America. All rights reserved.
##CAS REGISTRY NO=7310-92-1
##MOLFORM=C 5 H 8 S
##$NIST SOURCE=MSDC-IR
##STATE=gas
##XUNITS=1/CM
##YUNITS=ABSORBANCE
##XFACTOR=1.
##YFACTOR=0.001
##DELTAX=1.92898
##FIRSTX=549.8
##LASTX=4000.7
##FIRSTY=1.326
##MAXX=4000.7
##MINX=549.759
##MAXY=0.067165
##MINY=0
##NPOINTS=1790
##XYDATA=(X++(Y..Y))
549.759 1.326 0.606 0.96652 2.015 0.674 0 0.532 0.746 1.3377 1.5297
569.049 1.4569 1.7476 1.2927 0.98394 1.4539 1.6904 1.5043 1.1492 1.4251 1.7561
588.339 2.575 3.495 3.485 3.225 3.055 3.015 3.155 4.165 5.345 5.555
607.628 6.305 8.095 9.555 10.385 12.305 14.805 17.195 20.795 24.445 28.425
626.918 34.355 41.045 48.555 56.125 62.775 67.165 65.915 62.045 56.845 50.155
646.208 43.075 36.215 30.915 26.605 22.935 18.895 15.255 13.415 11.655 9.835
665.498 8.455 7.215 6.225 5.955 5.605 4.795 4.135 3.535 2.995 2.955
684.787 3.125 3.155 3.135 2.975 3.345 3.825 4.185 4.425 4.435 4.835
704.077 5.095 5.545 6.185 6.125 6.075 6.495 6.865 7.115 7.105 6.495
723.367 6.115 5.885 5.225 4.945 4.535 3.645 3.485 3.495 3.035 2.775
742.657 2.435 2.125 2.775 2.845 2.185 2.295 2.755 2.855 2.495 2.085
761.947 1.975 2.045 2.275 2.505 2.445 2.615 2.325 2.165 2.045 1.6931
781.236 1.7569 1.7319 1.5276 1.679 1.7147 1.6896 2.035 1.7953 1.5656 2.215
800.526 2.365 1.7179 1.7773 1.955 1.7931 1.29 1.2934 1.8499 1.935 1.995
819.816 1.1947 0.06 0.302 1.4008 1.6328 1.5018 1.7867 1.8304 1.5554 1.4963
839.106 1.576 1.5802 1.4593 1.9242 2.455 1.6671 1.2392 1.7018 1.8768 1.1165
858.395 0.97744 1.4872 1.4149 1.5599 1.5768 1.7879 2.295 1.985 1.7749 1.985
877.685 1.965 2.155 2.105 1.6887 1.6543 1.5108 1.2885 1.266 1.329 1.7869
896.975 2.015 1.6315 1.5286 1.4108 1.3717 1.4843 1.3007 1.4968 1.8802 2.055
916.265 2.425 2.555 2.225 2.045 1.8845 1.526 1.6089 2.025 1.831 1.945
935.555 2.785 3.175 3.225 3.245 3.185 3.015 3.105 3.185 3.095 3.545
954.844 4.395 4.285 3.575 3.675 3.895 3.915 3.985 4.235 4.035 3.635
974.134 3.835 3.755 3.745 3.405 3.035 3.265 2.985 3.085 2.995 2.565
993.424 2.635 2.125 1.7493 1.925 1.965 2.175 1.4768 1.3161 1.7196 1.745
1012.714 2.435 2.535 1.8658 1.6406 1.775 1.7117 1.985 1.945 2.025 1.8175
1032.003 1.6741 2.515 2.545 2.055 2.205 1.985 2.435 3.105 2.735 2.555
1051.293 2.415 2.385 2.215 2.055 2.715 2.875 2.535 2.395 1.9208 2.435
1070.583 1.8955 1.0599 1.6084 1.4223 0.8267 0.456 0.9408 1.221 1.1447 1.73
1089.873 2.255 2.675 3.245 2.735 2.065 2.215 1.8018 0.735 0.629 1.0266
1109.163 1.2978 1.302 0.99752 0.932091 1.7432 1.6928 0.8668 0.648 1.2482 2.195
1128.452 2.485 1.7363 1.593 2.615 2.465 2.465 2.325 2.245 2.195 1.935
1147.742 1.7027 1.3304 2.185 2.725 2.875 2.835 2.045 1.7402 2.655 3.415
1167.032 3.235 2.855 2.215 2.785 3.395 2.775 3.115 2.925 2.475 2.185
1186.322 1.6967 3.305 3.375 3.045 4.215 3.855 2.835 1.8845 2.185 2.465
1205.611 3.025 3.815 3.685 5.075 7.155 8.185 8.595 10.335 12.755 13.785
1224.901 14.725 15.975 16.095 15.275 16.095 17.445 17.925 18.225 19.945 21.765
1244.191 21.115 21.355 21.345 20.475 19.765 19.395 19.915 19.945 19.815 20.235
1263.481 20.375 19.365 18.435 17.485 15.615 14.005 12.565 11.205 10.295 9.355
1282.771 8.495 7.565 6.505 5.485 4.585 4.195 3.655 3.235 3.465 3.295
1302.060 2.815 2.525 2.395 2.525 2.705 2.575 2.415 2.305 2.155 2.075
1321.350 2.215 2.205 2.025 1.8712 1.7468 1.7739 1.7283 1.7066 1.6714 1.5803
1340.640 1.5256 1.5435 1.6008 1.7949 1.8117 1.6544 1.7774 1.985 1.995 2.105
1359.930 2.265 2.225 2.425 2.635 2.755 2.955 3.065 3.335 3.495 3.585
1379.219 3.795 3.685 3.685 3.895 4.085 4.265 4.175 4.075 4.225 4.265
1398.509 4.285 4.495 4.705 4.915 5.225 5.465 5.495 5.725 6.015 6.075
1417.799 6.215 6.355 6.475 6.585 6.565 6.445 6.275 6.105 5.845 5.795
1437.089 5.865 5.885 5.925 5.915 5.945 5.885 5.935 5.935 5.855 5.795
1456.378 5.855 5.615 5.235 5.115 4.745 4.435 4.435 4.225 3.985 3.965
1475.668 3.695 3.425 3.385 3.295 3.135 2.925 2.625 2.345 2.215 2.185
1494.958 2.325 2.425 2.235 2.095 2.145 2.165 1.8261 1.7204 1.8589 1.6458
1514.248 1.5745 1.5964 1.4981 1.7764 1.7143 1.5514 1.8052 1.7916 1.5973 1.4214
1533.538 1.4349 1.4032 1.3194 1.2403 1.1319 1.2955 1.5561 1.7117 1.8036 1.4522
1552.827 1.2036 1.2085 1.2867 1.4304 1.3871 1.5323 1.5629 1.5562 1.4139 1.2996
1572.117 1.402 1.4488 1.1973 1.1068 1.2775 1.326 1.329 1.1193 1.0112 1.1035
1591.407 1.2742 1.2882 1.3624 1.3357 1.0465 1.0505 0.8829 0.755 0.966 1.1669
1610.697 1.3118 1.4069 1.2789 0.99705 0.98306 1.0452 1.00633 1.1304 1.1166 1.2475
1629.986 1.4323 1.1274 1.1705 1.2971 1.1114 1.0979 1.0662 1.0946 1.1683 0.94315
1649.276 0.8437 0.786 0.8997 1.1551 1.0623 1.0489 1.2763 1.0927 1.0606 1.1978
1668.566 0.99895 0.8915 0.99621 1.00981 0.8946 0.8614 0.8988 0.99189 0.98452 1.0383
1687.856 1.01153 1.0126 1.0852 1.0814 1.1357 1.104 0.96113 0.926634 1.01315 1.01183
1707.146 1.0821 1.0757 0.9864 1.0633 1.0994 1.0102 0.865 1.01925 1.2083 1.176
1726.435 1.1558 0.93956 1.0281 1.1414 0.8562 0.96727 0.9054 0.818 1.01169 1.1696
1745.725 1.00125 0.8301 0.94393 0.98507 1.0269 0.99775 1.0739 1.1886 1.1725 1.0398
1765.015 0.99305 0.9797 0.94996 0.9007 0.814 1.0254 1.0687 0.8725 0.931032 1.0582
1784.305 1.2513 1.1714 0.931592 0.91786 0.806 0.848 0.91534 0.9044 0.9149 0.96507
1803.594 0.94763 0.9009 1.0742 1.0686 0.8453 0.8304 0.8824 0.97368 1.0504 1.00704
1822.884 0.97216 0.8844 0.94103 1.01491 1.0564 1.058 0.97005 0.96092 0.94353 0.94358
1842.174 0.9118 0.8518 0.783 0.832 1.0475 1.129 1.00763 0.94495 1.0272 1.148
1861.464 1.053 0.822 0.747 0.792 0.8311 0.8595 0.928647 1.0348 1.0222 1.00797
1880.754 1.1249 1.1125 1.126 1.1015 0.930142 0.95537 0.98729 0.9085 0.8255 0.734
1900.043 0.682 0.741 0.9039 0.95506 0.96178 0.96878 1.01108 0.97758 0.94015 1.0594
1919.333 1.2092 1.1613 1.00102 1.02136 1.0769 1.1217 1.116 1.0822 0.8657 0.748
1938.623 1.0281 1.1 0.8808 0.8492 1.0443 1.0819 0.99158 0.97947 1.0679 0.97437
1957.913 0.95318 1.0366 0.8932 0.806 0.845 0.993 1.0571 0.97775 0.97653 1.0721
1977.202 1.1215 1.1171 1.1041 1.0422 1.0871 1.0965 0.91525 0.824 0.78 0.8858
1996.492 1.1256 1.1371 0.98726 0.927424 1.1471 1.1927 1.0922 1.1635 1.0316 0.932078
2015.782 1.0822 1.1868 1.1116 0.98955 1.0801 1.1668 1.1885 1.1616 0.94596 0.934841
2035.072 1.1713 1.3386 1.2945 1.3333 1.5064 1.4817 1.2051 1.00137 1.0601 1.1405
2054.362 1.033 0.96898 0.95837 1.0407 1.1071 1.0421 1.0728 1.146 1.1375 1.0948
2073.651 1.3365 1.29 1.1338 1.1531 1.1193 1.1431 1.2225 1.3292 1.3899 1.5017
2092.941 1.6569 1.7273 1.7321 1.6589 1.5007 1.5626 1.7849 1.8339 1.985 1.995
2112.231 2.025 1.995 1.925 2.285 2.385 2.285 2.225 2.095 2.055 2.025
2131.521 1.6111 1.6034 1.8421 1.5393 1.3162 1.2994 1.4278 1.4679 1.3887 1.2397
2150.810 1.155 1.1172 1.056 1.0646 0.98215 1.068 1.2229 1.1141 1.1292 1.1994
2170.100 1.0571 1.0634 1.0755 1.0283 1.0891 1.0379 1.0496 1.1733 1.2747 1.1936
2189.390 1.0643 0.9129 0.8474 1.01138 1.185 1.1048 1.076 1.155 1.00805 0.99768
2208.680 1.0897 0.95822 0.771 0.763 0.932508 0.96638 1.1303 1.1098 0.816 0.8396
2227.970 0.95276 1.0696 0.8814 0.96985 1.3108 1.1467 1.1131 1.1717 1.0604 1.1348
2247.259 1.1108 1.0681 1.1281 1.1171 1.2072 1.3397 1.2162 0.97913 0.8969 0.825
2266.549 0.95792 1.1977 1.2672 1.2618 1.1895 1.2676 1.3288 1.1424 0.97169 0.807
2285.839 0.8532 1.2196 1.1478 1.1316 1.2782 1.2289 1.0875 1.01117 1.0633 1.01885
2305.129 0.8578 0.97085 1.1143 1.0681 1.0476 0.99387 1.0895 1.1069 0.96547 1.071
2324.418 1.1448 1.0258 1.087 1.1995 1.2791 1.0278 0.763 0.8718 0.8511 0.95569
2343.708 1.1789 1.1305 1.1456 1.0816 0.8825 0.924124 0.8601 0.809 0.786 0.797
2362.998 0.8751 0.793 0.76 1.01988 1.1176 1.1139 1.2369 1.2571 1.1189 0.9771
2382.288 1.1139 1.1479 0.98948 0.8574 0.762 0.8689 0.96044 1.01874 1.1353 1.0426
2401.578 1.1003 1.112 1.1463 1.1036 0.98876 0.97617 0.99144 1.1561 1.1973 1.083
2420.867 1.1451 1.2296 1.2371 1.0977 0.98916 0.95649 0.881 0.8902 1.0525 1.1999
2440.157 1.1729 1.2693 1.3229 1.4253 1.3029 1.2353 1.162 1.0551 1.3164 1.2221
2459.447 1.0699 1.0664 1.0914 1.1287 1.152 1.1432 1.0474 0.99842 1.0415 0.98223
2478.737 1.0498 1.2159 1.0651 0.8672 0.8902 0.92012 1.0274 1.1243 1.215 1.266
2498.026 0.795 0.659 0.8427 0.541 0.795 1.00973 0.92798 0.926961 1.0481 1.0737
2517.316 0.97521 0.99968 0.884 0.99165 1.0077 1.01233 1.0754 0.91718 0.691 0.8374
2536.606 0.9058 0.757 0.72 0.854 0.94854 0.8982 0.67 0.454 0.521 0.709
2555.896 0.815 1.0655 1.2244 1.0857 0.93183 0.678 0.631 0.738 0.786 1.01776
2575.186 0.98629 0.91781 1.01346 1.0679 1.2696 1.3617 1.2313 1.0269 1.0586 0.96713
2594.475 1.0422 1.3013 1.1924 1.01871 1.02214 0.8561 0.756 1.01958 1.0773 1.1013
2613.765 1.1691 0.91891 0.8 0.93582 1.113 1.1614 1.1723 1.1577 1.00723 0.98339
2633.055 1.0922 0.96264 1.0529 1.3433 1.3965 1.2917 1.00753 1.00271 0.93957 0.98566
2652.345 0.97731 1.0796 1.2337 0.8772 1.1127 1.5296 1.3676 1.1782 1.0466 1.1613
2671.634 1.2548 1.554 1.5222 1.1892 1.1139 1.0426 1.3047 1.4951 1.4049 1.4734
2690.924 1.6516 1.6694 1.3469 1.0846 1.3219 1.4902 1.2319 1.2069 1.2951 1.1219
2710.214 1.3679 1.6167 1.559 1.3547 1.3691 1.5837 1.485 1.4607 1.5247 1.5764
2729.504 1.64 1.6765 1.7761 1.6404 1.566 1.325 1.3437 1.5327 1.5755 1.6262
2748.794 1.3834 1.2863 1.341 1.2428 1.1423 1.4359 1.5886 1.4084 1.093 1.137
2768.083 1.5533 1.3502 1.049 1.1814 1.3194 1.5095 1.4482 1.2853 1.5781 1.5835
2787.373 1.2785 1.5089 1.6965 1.5372 1.524 1.5907 1.7556 1.8924 1.985 1.955
2806.663 1.896 1.935 1.925 1.975 2.115 2.545 2.875 2.745 2.655 2.815
2825.953 3.015 3.005 3.065 3.315 3.425 3.485 3.325 3.315 3.275 3.095
2845.242 3.275 3.465 3.895 4.135 4.065 4.465 4.795 4.795 4.965 5.175
2864.532 5.555 6.145 6.665 6.825 7.205 7.625 7.845 8.295 8.665 9.185
2883.822 9.535 9.745 9.885 9.855 10.075 10.255 10.455 10.735 10.895 11.145
2903.112 11.305 11.325 11.915 12.685 13.215 13.745 14.435 15.355 16.405 17.575
2922.401 18.725 19.815 20.545 21.605 22.545 22.905 23.035 22.925 22.965 22.675
2941.691 22.285 22.095 21.715 21.065 20.375 19.575 18.555 17.915 17.845 17.585
2960.981 17.425 18.045 18.285 18.575 19.215 19.455 19.815 20.375 20.385 20.015
2980.271 19.705 19.385 18.825 17.525 16.175 15.145 14.105 13.095 11.955 10.605
2999.561 9.245 8.355 7.735 6.775 5.825 5.565 5.435 4.805 4.415 3.965
3018.850 3.235 3.155 3.115 3.165 3.225 2.975 2.935 2.435 2.245 2.295
3038.140 2.245 2.555 2.705 2.295 1.8562 1.8994 2.165 2.615 2.325 1.8605
3057.430 2.145 2.005 1.8133 1.945 1.7809 1.9174 2.135 1.8046 1.5881 1.6422
3076.720 1.6344 1.7249 1.4791 1.4185 1.6132 1.7571 1.818 1.4794 1.6472 1.6765
3096.009 1.2919 1.2473 1.3007 1.6908 1.5216 1.1801 1.1922 1.3267 1.3295 1.01752
3115.299 1.2965 1.6098 1.5186 1.2403 1.0157 1.3419 1.4593 1.2592 1.5741 1.7608
3134.589 1.6295 1.7715 1.4888 1.4095 1.8391 1.8758 1.6238 1.5518 1.5119 1.2577
3153.879 1.4544 1.6599 1.2628 0.767 1.00642 1.5215 1.5364 1.1588 1.4049 1.624
3173.169 1.558 1.1528 1.0285 1.5927 1.2428 0.8352 1.0554 1.4659 1.4477 1.3226
3192.458 1.4943 1.3732 0.92188 1.0773 1.1665 0.656 0.727 0.97397 0.8846 1.1037
3211.748 1.4379 1.3298 1.1667 1.3445 1.5047 1.5076 1.2759 1.1272 1.2851 1.2065
3231.038 1.0929 1.0801 1.1254 1.5441 1.5561 1.2056 1.5856 1.6869 1.2921 1.2586
3250.328 1.3636 1.5804 1.4285 1.5891 2.215 2.095 2.205 2.535 2.555 2.315
3269.617 2.185 2.805 3.355 3.645 3.975 4.215 4.635 5.055 5.505 5.835
3288.907 5.875 6.745 8.165 9.255 10.085 11.065 12.335 12.795 12.485 13.585
3308.197 15.185 16.525 18.745 21.355 23.915 26.115 27.195 26.685 25.795 25.525
3327.487 25.595 24.075 22.405 23.785 24.835 23.185 20.505 16.745 13.265 10.225
3346.777 7.835 6.695 5.655 5.135 4.475 3.805 3.715 3.375 3.115 3.225
3366.066 3.185 2.715 2.445 3.055 2.505 1.925 1.9175 1.4518 1.091 1.032
3385.356 1.4184 1.426 1.1974 1.01214 1.1604 1.4172 1.4402 1.2669 1.0833 0.95782
3404.646 1.1158 1.4768 1.2527 0.572 0.539 0.99862 1.01828 1.2592 1.2561 0.821
3423.936 0.9037 1.1486 1.2249 1.0294 0.95933 1.1495 1.1025 1.0259 1.0369 0.808
3443.225 1.2069 1.4294 1.01825 0.793 0.515 0.666 0.799 0.631 0.611 0.799
3462.515 0.685 0.764 0.821 0.529 0.668 0.77 0.95301 1.4187 1.01373 0.463
3481.805 0.665 1.1199 1.6216 1.574 1.2334 0.625 0.29 0.707 0.725 0.8703
3501.095 1.0021 1.1072 1.0778 0.516 0.524 0.512 0.374 0.703 1.4082 1.6281
3520.385 1.1804 0.9042 0.786 0.9926 1.1067 0.695 0.537 0.793 0.772 0.636
3539.674 0.638 0.629 0.763 0.69 0.91807 1.3555 1.4926 1.7356 1.6746 1.2123
3558.964 1.0271 1.2038 0.736 0.462 1.0395 1.2847 1.1173 0.98035 0.925034 0.75
3578.254 0.708 0.724 0.9047 1.0419 0.575 0.42 1.2439 1.5069 1.3372 0.772
3597.544 0.405 0.261 0.257 0.637 0.675 0.8754 0.673 0.63 0.8424 0.9038
3616.833 0.756 0.359 0.677 1.3487 1.3608 0.808 0.8573 0.797 0.823 1.2845
3636.123 1.374 1.1128 1.2804 1.195 0.8 1.0857 0.932258 0.97385 1.4902 1.8375
3655.413 1.5536 1.055 1.0683 0.734 0.476 0.818 0.8876 0.91504 1.2108 1.2158
3674.703 1.3593 1.3613 1.1379 1.3003 1.1475 1.00554 0.97362 0.797 0.962 1.3853
3693.993 1.6428 1.6938 1.3573 0.632 0.42 0.738 1.2613 1.3646 0.8355 1.1403
3713.282 1.6776 1.6457 1.3128 0.93764 1.6221 1.6369 0.8719 0.8604 0.8901 1.1376
3732.572 1.4038 1.663 1.9234 1.3029 0.858 0.8457 0.668 0.614 0.445 0.253
3751.862 0.278 0.507 0.555 0.434 0.793 1.1763 1.1029 0.8731 0.96743 1.2149
3771.152 0.97595 0.783 1.0255 1.4212 1.5003 1.3513 1.2606 1.2123 1.2476 1.319
3790.441 1.0671 0.881 1.2141 1.3036 0.8995 0.482 0.48 0.351 0.381 0.8435
3809.731 1.363 1.5702 1.0891 0.92111 0.8837 0.673 0.8572 0.926458 0.637 0.157
3829.021 0.494 1.0375 0.9004 0.97987 0.81 0.8924 0.95528 0.644 0.656 0.683
3848.311 0.692 0.671 0.521 0.637 1.00721 1.3036 1.4372 1.5411 1.6191 1.3159
3867.601 0.736 0.631 1.02267 0.9115 0.305 0.032 0.349 0.79 1.02458 0.95637
3886.890 1.01306 1.3827 1.3918 0.95055 1.2453 1.5449 1.1281 1.137 0.708 0.258
3906.180 0.749 1.3867 1.4383 0.718 0.8342 1.7516 1.5976 1.1369 1.0808 1.2976
3925.470 1.5855 1.7304 1.4826 1.2721 1.4261 1.424 1.6859 1.7609 1.935 2.045
3944.760 1.8098 2.165 1.935 1.2654 1.2395 1.3584 1.3296 1.4261 1.7773 1.7361
3964.049 1.5208 1.3724 1.4846 1.602 1.5896 1.3553 1.1035 1.1118 1.1956 1.4271
3983.339 1.3992 1.0792 0.96914 1.2575 1.4228 1.131 1.00487 1.1491 1.5215 1.762
##END=
