##TITLE=CYCLOPROPANE
##JCAMP-DX=4.24
##DATA TYPE=INFRARED SPECTRUM
##CLASS=COBLENTZ
##ORIGIN=DOW CHEMICAL COMPANY
##OWNER=COBLENTZ SOCIETY
Collection (C) 2018 copyright by the U.S. Secretary of Commerce
on behalf of the United States of America. All rights reserved.
##DATE=Not specified, most likely prior to 1970
##CAS REGISTRY NO=75-19-4
##MOLFORM=C3 H6
##SOURCE REFERENCE=COBLENTZ NO. 123
##$NIST SOURCE=COBLENTZ
##$NIST IMAGE=cob123
##SPECTROMETER/DATA SYSTEM=Not specified, most likely a prism, grating, or hybrid spectrometer.
##STATE=GAS
##SAMPLING PROCEDURE=TRANSMISSION
##RESOLUTION=4
##DATA PROCESSING=DIGITIZED BY NIST FROM HARD COPY
##XUNITS=MICROMETERS
##YUNITS=TRANSMITTANCE
##XFACTOR=1.000000
##YFACTOR=1
##DELTAX=000.006700
##FIRSTX=2.035
##LASTX=15.9184
##FIRSTY=0.816
##MAXX=15.9184
##MINX=2.035
##MAXY=0.881
##MINY=0.301
##NPOINTS=2073
##XYDATA=(X++(Y..Y))
2.035000 0.8160 0.8160 0.8160 0.8160 0.8160
2.068517 0.8160 0.8160 0.8160 0.8160 0.8160
2.102000 0.8160 0.8160 0.8150 0.8150 0.8150
2.135517 0.8130 0.8110 0.8080 0.8060 0.8030
2.169000 0.8000 0.7980 0.7960 0.7930 0.7910
2.202517 0.7930 0.7950 0.7960 0.8000 0.8030
2.236000 0.8080 0.8100 0.8130 0.8130 0.8150
2.269517 0.8150 0.8150 0.8130 0.8100 0.8060
2.303000 0.8010 0.8000 0.7980 0.7960 0.7960
2.336517 0.7980 0.7980 0.8000 0.8000 0.8030
2.370000 0.8050 0.8060 0.8080 0.8100 0.8110
2.403517 0.8130 0.8150 0.8160 0.8180 0.8180
2.437000 0.8180 0.8180 0.8180 0.8180 0.8180
2.470517 0.8200 0.8200 0.8210 0.8210 0.8210
2.504000 0.8210 0.8210 0.8210 0.8210 0.8210
2.537517 0.8200 0.8180 0.8160 0.8160 0.8150
2.571000 0.8150 0.8150 0.8160 0.8160 0.8160
2.604517 0.8110 0.8110 0.8160 0.8180 0.8200
2.638000 0.8200 0.8200 0.8210 0.8210 0.8230
2.671517 0.8230 0.8250 0.8210 0.8210 0.8230
2.705000 0.8230 0.8230 0.8230 0.8210 0.8210
2.738517 0.8230 0.8230 0.8210 0.8210 0.8200
2.772000 0.8200 0.8180 0.8180 0.8160 0.8160
2.805517 0.8160 0.8160 0.8180 0.8180 0.8200
2.839000 0.8200 0.8200 0.8200 0.8200 0.8180
2.872517 0.8180 0.8180 0.8180 0.8180 0.8180
2.906000 0.8200 0.8200 0.8180 0.8180 0.8180
2.939517 0.8180 0.8180 0.8180 0.8180 0.8180
2.973000 0.8180 0.8180 0.8200 0.8200 0.8180
3.006517 0.8180 0.8180 0.8180 0.8200 0.8200
3.040000 0.8210 0.8200 0.8200 0.8200 0.8200
3.073517 0.8200 0.8210 0.8210 0.8210 0.8210
3.107000 0.8210 0.8210 0.8200 0.8160 0.8110
3.140517 0.8060 0.8000 0.7850 0.7660 0.7460
3.174000 0.7200 0.6900 0.6680 0.6450 0.6160
3.207517 0.6060 0.5960 0.5850 0.5810 0.5760
3.241000 0.5750 0.5730 0.5680 0.5580 0.5510
3.274517 0.5400 0.5210 0.5000 0.4750 0.4480
3.308000 0.4410 0.4230 0.4200 0.4410 0.4500
3.341517 0.5130 0.5500 0.5760 0.6980 0.7260
3.375000 0.7480 0.7550 0.7580 0.7580 0.7580
3.408517 0.7580 0.7600 0.7610 0.7630 0.7680
3.442000 0.7710 0.7710 0.7760 0.7800 0.7860
3.475517 0.7900 0.7980 0.8000 0.8030 0.8080
3.509000 0.8160 0.8200 0.8230 0.8280 0.8310
3.542517 0.8330 0.8330 0.8330 0.8350 0.8360
3.576000 0.8380 0.8400 0.8400 0.8410 0.8410
3.609517 0.8410 0.8400 0.8410 0.8410 0.8400
3.643000 0.8400 0.8410 0.8410 0.8410 0.8410
3.676517 0.8410 0.8430 0.8430 0.8430 0.8430
3.710000 0.8410 0.8410 0.8450 0.8450 0.8450
3.743517 0.8450 0.8430 0.8430 0.8410 0.8400
3.777000 0.8400 0.8400 0.8400 0.8400 0.8410
3.810517 0.8450 0.8410 0.8410 0.8410 0.8430
3.844000 0.8430 0.8450 0.8450 0.8460 0.8480
3.877517 0.8500 0.8500 0.8500 0.8500 0.8500
3.911000 0.8500 0.8500 0.8500 0.8500 0.8500
3.944517 0.8480 0.8460 0.8450 0.8430 0.8430
3.978000 0.8430 0.8430 0.8460 0.8460 0.8410
4.011517 0.8410 0.8410 0.8410 0.8430 0.8430
4.045000 0.8450 0.8480 0.8460 0.8480 0.8480
4.078517 0.8500 0.8510 0.8510 0.8510 0.8530
4.112000 0.8580 0.8600 0.8600 0.8600 0.8600
4.145517 0.8600 0.8600 0.8610 0.8610 0.8630
4.179000 0.8650 0.8650 0.8650 0.8650 0.8610
4.212517 0.8580 0.8580 0.8560 0.8550 0.8510
4.246000 0.8510 0.8550 0.8550 0.8550 0.8550
4.279517 0.8550 0.8550 0.8530 0.8530 0.8550
4.313000 0.8550 0.8550 0.8550 0.8580 0.8580
4.346517 0.8630 0.8630 0.8630 0.8630 0.8630
4.380000 0.8630 0.8630 0.8630 0.8630 0.8630
4.413517 0.8630 0.8630 0.8630 0.8630 0.8630
4.447000 0.8630 0.8630 0.8610 0.8610 0.8600
4.480517 0.8610 0.8610 0.8610 0.8610 0.8610
4.514000 0.8610 0.8600 0.8560 0.8530 0.8530
4.547517 0.8530 0.8530 0.8550 0.8550 0.8560
4.581000 0.8560 0.8560 0.8580 0.8580 0.8630
4.614517 0.8630 0.8610 0.8610 0.8600 0.8600
4.648000 0.8600 0.8580 0.8600 0.8600 0.8610
4.681517 0.8610 0.8610 0.8600 0.8530 0.8510
4.715000 0.8430 0.8380 0.8350 0.8350 0.8330
4.748517 0.8310 0.8310 0.8300 0.8280 0.8260
4.782000 0.8250 0.8230 0.8230 0.8210 0.8210
4.815517 0.8210 0.8230 0.8250 0.8260 0.8280
4.849000 0.8300 0.8310 0.8310 0.8330 0.8350
4.882517 0.8380 0.8410 0.8430 0.8500 0.8510
4.916000 0.8530 0.8550 0.8610 0.8630 0.8650
4.949517 0.8650 0.8650 0.8660 0.8660 0.8660
4.983000 0.8660 0.8680 0.8680 0.8660 0.8680
5.016517 0.8680 0.8680 0.8660 0.8660 0.8660
5.050000 0.8680 0.8680 0.8700 0.8700 0.8680
5.083517 0.8680 0.8680 0.8660 0.8650 0.8650
5.117000 0.8650 0.8650 0.8650 0.8650 0.8650
5.150517 0.8680 0.8680 0.8650 0.8630 0.8610
5.184000 0.8610 0.8600 0.8550 0.8530 0.8500
5.217517 0.8460 0.8400 0.8300 0.8230 0.8180
5.251000 0.8110 0.8030 0.8000 0.7980 0.7950
5.284517 0.7910 0.7910 0.8000 0.8010 0.8180
5.318000 0.8280 0.8330 0.8360 0.8410 0.8430
5.351517 0.8430 0.8450 0.8500 0.8510 0.8560
5.385000 0.8600 0.8610 0.8630 0.8650 0.8650
5.418517 0.8650 0.8650 0.8660 0.8660 0.8680
5.452000 0.8680 0.8700 0.8700 0.8700 0.8700
5.485517 0.8700 0.8700 0.8700 0.8700 0.8700
5.519000 0.8700 0.8680 0.8680 0.8680 0.8680
5.552517 0.8660 0.8650 0.8630 0.8610 0.8610
5.586000 0.8600 0.8580 0.8580 0.8560 0.8560
5.619517 0.8580 0.8600 0.8630 0.8650 0.8650
5.653000 0.8650 0.8650 0.8650 0.8630 0.8600
5.686517 0.8550 0.8550 0.8530 0.8510 0.8500
5.720000 0.8500 0.8500 0.8480 0.8460 0.8460
5.753517 0.8450 0.8450 0.8450 0.8460 0.8500
5.787000 0.8510 0.8550 0.8580 0.8610 0.8630
5.820517 0.8650 0.8650 0.8650 0.8650 0.8660
5.854000 0.8700 0.8700 0.8700 0.8700 0.8700
5.887517 0.8700 0.8700 0.8700 0.8700 0.8700
5.921000 0.8700 0.8700 0.8700 0.8700 0.8700
5.954517 0.8680 0.8680 0.8660 0.8660 0.8650
5.988000 0.8650 0.8630 0.8650 0.8660 0.8660
6.021517 0.8660 0.8660 0.8660 0.8660 0.8650
6.055000 0.8650 0.8630 0.8630 0.8630 0.8630
6.088517 0.8650 0.8650 0.8650 0.8650 0.8650
6.122000 0.8630 0.8610 0.8600 0.8600 0.8600
6.155517 0.8560 0.8580 0.8560 0.8560 0.8560
6.189000 0.8550 0.8550 0.8510 0.8500 0.8500
6.222517 0.8450 0.8450 0.8410 0.8410 0.8400
6.256000 0.8400 0.8400 0.8400 0.8400 0.8400
6.289517 0.8400 0.8380 0.8350 0.8350 0.8330
6.323000 0.8330 0.8330 0.8330 0.8330 0.8350
6.356517 0.8360 0.8430 0.8450 0.8460 0.8460
6.390000 0.8480 0.8480 0.8500 0.8530 0.8550
6.423517 0.8600 0.8650 0.8660 0.8680 0.8680
6.457000 0.8680 0.8680 0.8680 0.8680 0.8680
6.490517 0.8700 0.8700 0.8700 0.8700 0.8700
6.524000 0.8700 0.8700 0.8700 0.8700 0.8700
6.557517 0.8700 0.8700 0.8700 0.8700 0.8700
6.591000 0.8700 0.8700 0.8700 0.8700 0.8700
6.624517 0.8700 0.8710 0.8710 0.8710 0.8710
6.658000 0.8730 0.8710 0.8710 0.8700 0.8700
6.691517 0.8680 0.8660 0.8650 0.8660 0.8660
6.725000 0.8660 0.8660 0.8650 0.8610 0.8580
6.758517 0.8550 0.8530 0.8510 0.8500 0.8450
6.792000 0.8430 0.8410 0.8380 0.8350 0.8310
6.825517 0.8280 0.8230 0.8210 0.8200 0.8180
6.859000 0.8180 0.8160 0.8160 0.8150 0.8150
6.892517 0.8130 0.8130 0.8110 0.8110 0.8080
6.926000 0.8080 0.8060 0.8080 0.8100 0.8130
6.959517 0.8180 0.8180 0.8200 0.8200 0.8180
6.993000 0.8200 0.8180 0.8160 0.8160 0.8150
7.026517 0.8150 0.8150 0.8150 0.8160 0.8230
7.060000 0.8260 0.8280 0.8300 0.8310 0.8350
7.093517 0.8350 0.8360 0.8410 0.8430 0.8450
7.127000 0.8460 0.8500 0.8530 0.8550 0.8580
7.160517 0.8600 0.8600 0.8610 0.8630 0.8650
7.194000 0.8650 0.8650 0.8650 0.8650 0.8650
7.227517 0.8660 0.8660 0.8660 0.8650 0.8650
7.261000 0.8650 0.8660 0.8680 0.8680 0.8680
7.294517 0.8680 0.8700 0.8700 0.8700 0.8700
7.328000 0.8710 0.8710 0.8710 0.8730 0.8730
7.361517 0.8730 0.8730 0.8730 0.8730 0.8730
7.395000 0.8730 0.8730 0.8730 0.8750 0.8750
7.428517 0.8750 0.8750 0.8750 0.8750 0.8750
7.462000 0.8750 0.8750 0.8750 0.8750 0.8750
7.495517 0.8750 0.8760 0.8760 0.8760 0.8760
7.529000 0.8760 0.8760 0.8760 0.8780 0.8780
7.562517 0.8800 0.8800 0.8800 0.8800 0.8780
7.596000 0.8780 0.8780 0.8800 0.8780 0.8780
7.629517 0.8780 0.8780 0.8780 0.8780 0.8780
7.663000 0.8800 0.8800 0.8800 0.8800 0.8800
7.696517 0.8780 0.8780 0.8780 0.8750 0.8750
7.730000 0.8760 0.8780 0.8780 0.8780 0.8780
7.763517 0.8780 0.8780 0.8800 0.8800 0.8800
7.797000 0.8800 0.8800 0.8810 0.8800 0.8780
7.830517 0.8780 0.8780 0.8760 0.8760 0.8750
7.864000 0.8750 0.8760 0.8760 0.8780 0.8800
7.897517 0.8810 0.8810 0.8810 0.8800 0.8800
7.931000 0.8780 0.8780 0.8780 0.8780 0.8780
7.964517 0.8780 0.8800 0.8800 0.8800 0.8800
7.998000 0.8800 0.8800 0.8780 0.8780 0.8780
8.031517 0.8800 0.8800 0.8800 0.8800 0.8800
8.065000 0.8800 0.8800 0.8800 0.8800 0.8780
8.098517 0.8760 0.8750 0.8750 0.8760 0.8780
8.132000 0.8800 0.8800 0.8800 0.8800 0.8800
8.165517 0.8800 0.8800 0.8780 0.8780 0.8780
8.199000 0.8760 0.8760 0.8760 0.8750 0.8780
8.232517 0.8780 0.8780 0.8780 0.8780 0.8760
8.266000 0.8760 0.8760 0.8780 0.8780 0.8760
8.299517 0.8760 0.8750 0.8750 0.8750 0.8780
8.333000 0.8780 0.8780 0.8760 0.8760 0.8760
8.366517 0.8780 0.8780 0.8780 0.8780 0.8780
8.400000 0.8780 0.8780 0.8780 0.8780 0.8760
8.433517 0.8760 0.8750 0.8750 0.8750 0.8750
8.467000 0.8760 0.8760 0.8750 0.8750 0.8760
8.500517 0.8760 0.8750 0.8750 0.8750 0.8750
8.534000 0.8760 0.8750 0.8750 0.8730 0.8730
8.567517 0.8750 0.8750 0.8750 0.8750 0.8760
8.601000 0.8760 0.8750 0.8750 0.8730 0.8730
8.634517 0.8730 0.8730 0.8730 0.8730 0.8750
8.668000 0.8750 0.8750 0.8750 0.8750 0.8750
8.701517 0.8730 0.8730 0.8730 0.8750 0.8750
8.735000 0.8750 0.8750 0.8750 0.8750 0.8730
8.768517 0.8730 0.8730 0.8750 0.8750 0.8750
8.802000 0.8750 0.8750 0.8750 0.8750 0.8750
8.835517 0.8750 0.8750 0.8750 0.8750 0.8730
8.869000 0.8710 0.8710 0.8710 0.8710 0.8710
8.902517 0.8710 0.8710 0.8730 0.8730 0.8730
8.936000 0.8730 0.8730 0.8730 0.8710 0.8710
8.969517 0.8710 0.8710 0.8710 0.8710 0.8730
9.003000 0.8730 0.8710 0.8710 0.8710 0.8710
9.036517 0.8710 0.8710 0.8700 0.8700 0.8700
9.070000 0.8710 0.8710 0.8710 0.8710 0.8710
9.103517 0.8710 0.8710 0.8700 0.8700 0.8700
9.137000 0.8700 0.8700 0.8700 0.8700 0.8700
9.170517 0.8660 0.8660 0.8660 0.8660 0.8650
9.204000 0.8650 0.8630 0.8610 0.8610 0.8610
9.237517 0.8580 0.8550 0.8510 0.8500 0.8430
9.271000 0.8410 0.8350 0.8330 0.8250 0.8210
9.304517 0.8160 0.8110 0.8050 0.8010 0.8000
9.338000 0.7900 0.7810 0.7710 0.7600 0.7510
9.371517 0.7500 0.7410 0.7300 0.7210 0.7060
9.405000 0.7030 0.6910 0.6800 0.6760 0.6710
9.438517 0.6480 0.6350 0.6310 0.6260 0.6230
9.472000 0.6150 0.6100 0.6060 0.6030 0.6000
9.505517 0.5980 0.5960 0.5950 0.5930 0.5930
9.539000 0.5930 0.5950 0.5960 0.6060 0.6110
9.572517 0.6160 0.6210 0.6300 0.6350 0.6360
9.606000 0.6380 0.6380 0.6380 0.6330 0.6260
9.639517 0.6180 0.6050 0.6000 0.5930 0.5860
9.673000 0.5710 0.5610 0.5510 0.5310 0.5210
9.706517 0.5030 0.4930 0.4850 0.4810 0.4810
9.740000 0.4850 0.4910 0.5110 0.5310 0.5560
9.773517 0.5700 0.5850 0.6050 0.6200 0.6250
9.807000 0.6310 0.6330 0.6350 0.6350 0.6350
9.840517 0.6350 0.6350 0.6330 0.6310 0.6280
9.874000 0.6250 0.6230 0.6210 0.6210 0.6200
9.907517 0.6200 0.6180 0.6180 0.6200 0.6200
9.941000 0.6230 0.6250 0.6260 0.6330 0.6380
9.974517 0.6430 0.6500 0.6550 0.6610 0.6680
10.008000 0.6760 0.6850 0.6930 0.7000 0.7030
10.041517 0.7110 0.7250 0.7300 0.7380 0.7500
10.075000 0.7550 0.7630 0.7710 0.7750 0.7800
10.108517 0.7850 0.7910 0.8010 0.8030 0.8050
10.142000 0.8150 0.8200 0.8250 0.8260 0.8330
10.175517 0.8350 0.8360 0.8430 0.8460 0.8500
10.209000 0.8530 0.8550 0.8560 0.8630 0.8650
10.242517 0.8680 0.8680 0.8700 0.8700 0.8700
10.276000 0.8710 0.8710 0.8710 0.8710 0.8730
10.309517 0.8750 0.8750 0.8750 0.8750 0.8750
10.343000 0.8750 0.8750 0.8750 0.8750 0.8750
10.376517 0.8750 0.8750 0.8750 0.8760 0.8760
10.410000 0.8760 0.8760 0.8750 0.8750 0.8750
10.443517 0.8750 0.8750 0.8750 0.8750 0.8750
10.477000 0.8730 0.8730 0.8710 0.8710 0.8700
10.510517 0.8680 0.8680 0.8680 0.8680 0.8680
10.544000 0.8680 0.8660 0.8660 0.8660 0.8650
10.577517 0.8650 0.8630 0.8630 0.8610 0.8580
10.611000 0.8560 0.8550 0.8530 0.8530 0.8500
10.644517 0.8460 0.8450 0.8430 0.8380 0.8350
10.678000 0.8330 0.8300 0.8260 0.8250 0.8230
10.711517 0.8200 0.8160 0.8150 0.8080 0.8050
10.745000 0.8010 0.8000 0.7930 0.7900 0.7830
10.778517 0.7800 0.7760 0.7710 0.7650 0.7600
10.812000 0.7580 0.7530 0.7530 0.7500 0.7430
10.845517 0.7350 0.7310 0.7260 0.7200 0.7150
10.879000 0.7080 0.7010 0.7000 0.6900 0.6830
10.912517 0.6760 0.6730 0.6660 0.6630 0.6550
10.946000 0.6510 0.6500 0.6430 0.6400 0.6330
10.979517 0.6280 0.6230 0.6210 0.6160 0.6110
11.013000 0.6050 0.6030 0.6000 0.5980 0.5950
11.046517 0.5930 0.5910 0.5860 0.5830 0.5810
11.080000 0.5800 0.5780 0.5760 0.5750 0.5730
11.113517 0.5710 0.5710 0.5700 0.5680 0.5660
11.147000 0.5660 0.5660 0.5660 0.5680 0.5680
11.180517 0.5700 0.5700 0.5710 0.5730 0.5750
11.214000 0.5780 0.5800 0.5830 0.5860 0.5900
11.247517 0.5930 0.6050 0.6100 0.6130 0.6200
11.281000 0.6250 0.6310 0.6400 0.6500 0.6560
11.314517 0.6610 0.6700 0.6760 0.6830 0.6930
11.348000 0.7010 0.7110 0.7150 0.7210 0.7210
11.381517 0.7210 0.7200 0.7150 0.7030 0.6900
11.415000 0.6630 0.6530 0.6280 0.6010 0.5930
11.448517 0.5830 0.5600 0.5260 0.5100 0.4910
11.482000 0.4700 0.4410 0.4230 0.3950 0.3700
11.515517 0.3500 0.3380 0.3280 0.3150 0.3030
11.549000 0.3010 0.3030 0.3260 0.3510 0.3660
11.582517 0.3810 0.3980 0.4250 0.4500 0.4850
11.616000 0.5080 0.5230 0.5380 0.5510 0.5650
11.649517 0.5800 0.5860 0.6010 0.6100 0.6160
11.683000 0.6180 0.6210 0.6230 0.6230 0.6250
11.716517 0.6250 0.6250 0.6250 0.6250 0.6250
11.750000 0.6250 0.6250 0.6260 0.6260 0.6260
11.783517 0.6260 0.6260 0.6250 0.6230 0.6210
11.817000 0.6200 0.6200 0.6160 0.6150 0.6130
11.850517 0.6130 0.6110 0.6110 0.6100 0.6080
11.884000 0.6080 0.6080 0.6060 0.6050 0.6050
11.917517 0.6050 0.6050 0.6060 0.6060 0.6100
11.951000 0.6110 0.6130 0.6150 0.6160 0.6200
11.984517 0.6210 0.6230 0.6250 0.6250 0.6260
12.018000 0.6280 0.6310 0.6330 0.6350 0.6400
12.051517 0.6430 0.6450 0.6500 0.6510 0.6530
12.085000 0.6530 0.6610 0.6630 0.6650 0.6710
12.118517 0.6730 0.6760 0.6810 0.6830 0.6850
12.152000 0.6910 0.6930 0.6950 0.7000 0.7010
12.185517 0.7030 0.7080 0.7130 0.7180 0.7210
12.219000 0.7230 0.7280 0.7330 0.7350 0.7430
12.252517 0.7450 0.7500 0.7510 0.7530 0.7550
12.286000 0.7580 0.7630 0.7650 0.7660 0.7700
12.319517 0.7710 0.7760 0.7780 0.7800 0.7810
12.353000 0.7850 0.7860 0.7900 0.7910 0.7930
12.386517 0.7950 0.8010 0.8030 0.8030 0.8050
12.420000 0.8060 0.8080 0.8110 0.8130 0.8130
12.453517 0.8150 0.8180 0.8210 0.8210 0.8210
12.487000 0.8250 0.8250 0.8260 0.8260 0.8280
12.520517 0.8310 0.8310 0.8310 0.8310 0.8330
12.554000 0.8330 0.8350 0.8360 0.8380 0.8400
12.587517 0.8410 0.8410 0.8410 0.8430 0.8430
12.621000 0.8450 0.8450 0.8450 0.8460 0.8460
12.654517 0.8460 0.8480 0.8480 0.8500 0.8500
12.688000 0.8510 0.8510 0.8510 0.8510 0.8510
12.721517 0.8530 0.8530 0.8530 0.8530 0.8530
12.755000 0.8530 0.8530 0.8550 0.8550 0.8550
12.788517 0.8550 0.8550 0.8550 0.8550 0.8550
12.822000 0.8550 0.8550 0.8550 0.8550 0.8550
12.855517 0.8550 0.8550 0.8550 0.8550 0.8530
12.889000 0.8550 0.8550 0.8550 0.8550 0.8530
12.922517 0.8530 0.8530 0.8530 0.8510 0.8510
12.956000 0.8510 0.8510 0.8510 0.8510 0.8510
12.989517 0.8510 0.8510 0.8510 0.8510 0.8500
13.023000 0.8500 0.8500 0.8500 0.8510 0.8500
13.056517 0.8500 0.8500 0.8480 0.8460 0.8460
13.090000 0.8460 0.8450 0.8450 0.8450 0.8450
13.123517 0.8450 0.8450 0.8430 0.8430 0.8430
13.157000 0.8430 0.8430 0.8430 0.8430 0.8430
13.190517 0.8430 0.8430 0.8430 0.8430 0.8430
13.224000 0.8410 0.8400 0.8400 0.8400 0.8400
13.257517 0.8400 0.8400 0.8400 0.8400 0.8380
13.291000 0.8360 0.8360 0.8360 0.8360 0.8360
13.324517 0.8360 0.8380 0.8360 0.8360 0.8360
13.358000 0.8350 0.8350 0.8350 0.8350 0.8350
13.391517 0.8350 0.8350 0.8330 0.8330 0.8330
13.425000 0.8310 0.8330 0.8310 0.8310 0.8310
13.458517 0.8310 0.8300 0.8300 0.8280 0.8280
13.492000 0.8280 0.8260 0.8260 0.8260 0.8260
13.525517 0.8260 0.8260 0.8260 0.8260 0.8260
13.559000 0.8250 0.8250 0.8230 0.8230 0.8230
13.592517 0.8230 0.8230 0.8250 0.8230 0.8230
13.626000 0.8210 0.8210 0.8200 0.8200 0.8180
13.659517 0.8180 0.8180 0.8180 0.8160 0.8160
13.693000 0.8160 0.8160 0.8160 0.8150 0.8150
13.726517 0.8150 0.8150 0.8150 0.8150 0.8110
13.760000 0.8110 0.8110 0.8100 0.8100 0.8080
13.793517 0.8080 0.8060 0.8060 0.8060 0.8060
13.827000 0.8060 0.8060 0.8060 0.8060 0.8060
13.860517 0.8050 0.8050 0.8030 0.8030 0.8030
13.894000 0.8030 0.8030 0.8030 0.8010 0.8000
13.927517 0.8000 0.7980 0.7980 0.7960 0.7960
13.961000 0.7950 0.7950 0.7930 0.7930 0.7930
13.994517 0.7930 0.7930 0.7930 0.7910 0.7910
14.028000 0.7910 0.7900 0.7880 0.7880 0.7880
14.061517 0.7860 0.7850 0.7850 0.7830 0.7830
14.095000 0.7830 0.7830 0.7830 0.7830 0.7810
14.128517 0.7810 0.7800 0.7800 0.7800 0.7780
14.162000 0.7760 0.7750 0.7750 0.7730 0.7730
14.195517 0.7730 0.7710 0.7710 0.7710 0.7710
14.229000 0.7700 0.7700 0.7680 0.7680 0.7650
14.262517 0.7650 0.7650 0.7630 0.7630 0.7610
14.296000 0.7610 0.7600 0.7600 0.7580 0.7580
14.329517 0.7580 0.7580 0.7560 0.7560 0.7560
14.363000 0.7550 0.7530 0.7530 0.7510 0.7510
14.396517 0.7500 0.7480 0.7480 0.7460 0.7460
14.430000 0.7450 0.7450 0.7430 0.7410 0.7400
14.463517 0.7380 0.7380 0.7380 0.7360 0.7360
14.497000 0.7360 0.7350 0.7330 0.7330 0.7330
14.530517 0.7310 0.7310 0.7300 0.7300 0.7280
14.564000 0.7280 0.7260 0.7250 0.7230 0.7230
14.597517 0.7210 0.7210 0.7200 0.7180 0.7150
14.631000 0.7150 0.7130 0.7130 0.7110 0.7100
14.664517 0.7080 0.7080 0.7060 0.7050 0.7030
14.698000 0.7030 0.7030 0.7010 0.7010 0.7000
14.731517 0.7000 0.6980 0.6960 0.6950 0.6930
14.765000 0.6930 0.6910 0.6900 0.6880 0.6860
14.798517 0.6850 0.6830 0.6810 0.6800 0.6800
14.832000 0.6800 0.6800 0.6780 0.6760 0.6750
14.865517 0.6730 0.6730 0.6710 0.6700 0.6680
14.899000 0.6660 0.6630 0.6610 0.6610 0.6600
14.932517 0.6560 0.6550 0.6550 0.6550 0.6550
14.966000 0.6550 0.6530 0.6530 0.6530 0.6550
14.999517 0.6550 0.6550 0.6530 0.6530 0.6530
15.034000 0.6530 0.6510 0.6500 0.6480 0.6480
15.067517 0.6460 0.6450 0.6430 0.6430 0.6410
15.101000 0.6400 0.6380 0.6380 0.6360 0.6360
15.134517 0.6350 0.6330 0.6330 0.6330 0.6310
15.168000 0.6330 0.6310 0.6300 0.6300 0.6300
15.201517 0.6280 0.6280 0.6260 0.6250 0.6250
15.235000 0.6230 0.6210 0.6210 0.6210 0.6200
15.268517 0.6200 0.6200 0.6180 0.6160 0.6150
15.302000 0.6130 0.6130 0.6110 0.6110 0.6110
15.335517 0.6100 0.6080 0.6080 0.6060 0.6060
15.369000 0.6050 0.6050 0.6030 0.6010 0.6010
15.402517 0.6000 0.6000 0.5980 0.5960 0.5950
15.436000 0.5950 0.5930 0.5930 0.5910 0.5910
15.469517 0.5910 0.5910 0.5900 0.5900 0.5860
15.503000 0.5860 0.5850 0.5830 0.5810 0.5800
15.536517 0.5800 0.5780 0.5780 0.5760 0.5760
15.570000 0.5750 0.5730 0.5730 0.5710 0.5710
15.603517 0.5700 0.5700 0.5680 0.5680 0.5660
15.637000 0.5650 0.5650 0.5630 0.5610 0.5600
15.670517 0.5600 0.5580 0.5580 0.5560 0.5550
15.704000 0.5530 0.5530 0.5530 0.5510 0.5510
15.737517 0.5510 0.5510 0.5510 0.5500 0.5500
15.771000 0.5480 0.5460 0.5460 0.5450 0.5430
15.804517 0.5430 0.5410 0.5400 0.5380 0.5360
15.838000 0.5360 0.5350 0.5350 0.5330 0.5330
15.871517 0.5310 0.5310 0.5310 0.5310 0.5310
15.905000 0.5330 0.5350 0.5360
##END=
