##TITLE=Belta-MERCAPTOPROPIONAMIDE
##JCAMP-DX=4.24
##DATA TYPE=INFRARED SPECTRUM
##CLASS=COBLENTZ
##ORIGIN=ARTHUR D. LITTLE, INC.
##OWNER=COBLENTZ SOCIETY
Collection (C) 2018 copyright by the U.S. Secretary of Commerce
on behalf of the United States of America. All rights reserved.
##DATE=Not specified, most likely prior to 1970
##NAMES=3-sulfanylpropanamide
##CAS REGISTRY NO=763-35-9
##MOLFORM=C3 H7 N O S
##MP=99-100 C
##SOURCE REFERENCE=COBLENTZ NO. 4566
##$NIST SOURCE=COBLENTZ
##$NIST IMAGE=cob4566
##SPECTROMETER/DATA SYSTEM=Not specified, most likely a prism, grating, or hybrid spectrometer.
##STATE=SOLID(MINERAL OIL MULL)
##PATH LENGTH=
$$SPECTRAL CONTAMINATIN DUE TO OIL AROUND 2920 CM^-^1
##SAMPLING PROCEDURE=TRANSMISSION
##RESOLUTION=4
##DATA PROCESSING=DIGITIZED BY NIST FROM HARD COPY
##XUNITS=1/CM
##YUNITS=TRANSMITTANCE
##XFACTOR=1.000000
##YFACTOR=1
##DELTAX=001.456877
##FIRSTX=539.627
##LASTX=3603.44
##FIRSTY=0.205
##MAXX=3603.44
##MINX=539.627
##MAXY=1.005
##MINY=0.093
##NPOINTS=2104
##XYDATA=(X++(Y..Y))
539.627000 0.2050 0.2050 0.2030 0.2020 0.2000
546.914848 0.2000 0.1990 0.1970 0.1950 0.1860
554.196000 0.1830 0.1800 0.1700 0.1630 0.1570
561.483848 0.1550 0.1540 0.1540 0.1540 0.1540
568.765000 0.1540 0.1540 0.1540 0.1540 0.1540
576.052848 0.1540 0.1540 0.1540 0.1540 0.1540
583.333000 0.1540 0.1540 0.1540 0.1540 0.1540
590.620848 0.1540 0.1540 0.1540 0.1540 0.1540
597.902000 0.1550 0.1550 0.1550 0.1550 0.1550
605.189848 0.1550 0.1540 0.1540 0.1540 0.1540
612.471000 0.1540 0.1540 0.1540 0.1540 0.1540
619.758848 0.1540 0.1520 0.1520 0.1520 0.1520
627.040000 0.1520 0.1520 0.1540 0.1550 0.1550
634.327848 0.1570 0.1570 0.1580 0.1600 0.1600
641.608000 0.1630 0.1640 0.1650 0.1680 0.1700
648.895848 0.1730 0.1770 0.1790 0.1800 0.1830
656.177000 0.1870 0.1890 0.1900 0.1920 0.1930
663.464848 0.1930 0.1950 0.1950 0.1950 0.1950
670.746000 0.1960 0.1960 0.1970 0.1970 0.1990
678.033848 0.1990 0.1990 0.1990 0.2000 0.2020
685.315000 0.2020 0.2030 0.2030 0.2050 0.2050
692.602848 0.2060 0.2090 0.2150 0.2210 0.2290
699.883000 0.2350 0.2410 0.2440 0.2470 0.2530
707.170848 0.2630 0.2700 0.2790 0.2850 0.2960
714.452000 0.3100 0.3170 0.3210 0.3340 0.3430
721.739848 0.3600 0.3740 0.3810 0.3930 0.4030
729.021000 0.4110 0.4190 0.4270 0.4350 0.4410
736.308848 0.4490 0.4570 0.4640 0.4670 0.4740
743.590000 0.4860 0.4940 0.5030 0.5100 0.5180
750.877848 0.5220 0.5310 0.5350 0.5380 0.5410
758.159000 0.5450 0.5500 0.5510 0.5510 0.5530
765.446848 0.5530 0.5540 0.5540 0.5530 0.5510
772.727000 0.5510 0.5480 0.5470 0.5440 0.5440
780.014848 0.5420 0.5410 0.5380 0.5310 0.5240
787.296000 0.5160 0.5100 0.5030 0.4990 0.4970
794.583848 0.4940 0.4910 0.4890 0.4870 0.4870
801.865000 0.4890 0.4910 0.4960 0.5020 0.5130
809.152848 0.5220 0.5280 0.5380 0.5500 0.5610
816.434000 0.5720 0.5800 0.5890 0.5980 0.6040
823.721848 0.6090 0.6140 0.6170 0.6220 0.6250
831.002000 0.6270 0.6270 0.6240 0.6210 0.6180
838.289848 0.6170 0.6150 0.6110 0.6090 0.6080
845.571000 0.6060 0.6060 0.6080 0.6140 0.6200
852.858848 0.6270 0.6300 0.6330 0.6370 0.6390
860.140000 0.6340 0.6280 0.6220 0.6120 0.6050
867.427848 0.6010 0.5930 0.5860 0.5720 0.5610
874.709000 0.5510 0.5440 0.5350 0.5250 0.5210
881.996848 0.5210 0.5260 0.5340 0.5420 0.5530
889.277000 0.5640 0.5760 0.5880 0.5980 0.6080
896.564848 0.6170 0.6220 0.6250 0.6300 0.6360
903.846000 0.6440 0.6500 0.6550 0.6570 0.6600
911.133848 0.6710 0.6780 0.6820 0.6880 0.6910
918.415000 0.6950 0.6970 0.6980 0.6980 0.7010
925.702848 0.7010 0.7040 0.7050 0.7070 0.7080
932.984000 0.7100 0.7100 0.7110 0.7130 0.7130
940.271848 0.7110 0.7110 0.7110 0.7100 0.7080
947.552000 0.7080 0.7070 0.7070 0.7050 0.7050
954.839848 0.7050 0.7040 0.7040 0.7030 0.7010
962.121000 0.7000 0.7000 0.7000 0.6980 0.6970
969.408848 0.6970 0.6970 0.6950 0.6950 0.6940
976.690000 0.6940 0.6920 0.6910 0.6910 0.6890
983.977848 0.6880 0.6880 0.6870 0.6850 0.6820
991.259000 0.6760 0.6730 0.6710 0.6690 0.6660
998.546848 0.6620 0.6590 0.6570 0.6520 0.6440
1005.828000 0.6390 0.6370 0.6340 0.6300 0.6240
1013.115848 0.6150 0.6080 0.6010 0.5990 0.6010
1020.396000 0.6060 0.6120 0.6170 0.6210 0.6240
1027.683848 0.6270 0.6300 0.6310 0.6310 0.6300
1034.965000 0.6280 0.6270 0.6250 0.6250 0.6270
1042.252848 0.6270 0.6280 0.6300 0.6300 0.6330
1049.534000 0.6330 0.6310 0.6310 0.6300 0.6270
1056.821848 0.6270 0.6250 0.6240 0.6240 0.6220
1064.103000 0.6220 0.6210 0.6200 0.6170 0.6140
1071.390848 0.6090 0.6080 0.6040 0.5980 0.5960
1078.671000 0.5920 0.5880 0.5830 0.5790 0.5740
1085.958848 0.5660 0.5580 0.5530 0.5450 0.5400
1093.240000 0.5380 0.5320 0.5240 0.5130 0.5020
1100.527848 0.4870 0.4710 0.4580 0.4510 0.4450
1107.809000 0.4260 0.3950 0.3720 0.3470 0.3360
1115.096848 0.3230 0.2940 0.2760 0.2440 0.2220
1122.378000 0.2190 0.2210 0.2270 0.2280 0.2410
1129.665848 0.2560 0.2700 0.2830 0.3020 0.3500
1136.946000 0.3630 0.3780 0.3900 0.3970 0.4010
1144.233848 0.4040 0.4060 0.4060 0.4070 0.4090
1151.515000 0.4100 0.4250 0.4390 0.4550 0.4670
1158.802848 0.4770 0.4810 0.4900 0.4990 0.5020
1166.084000 0.5030 0.5050 0.5050 0.5060 0.5060
1173.371848 0.5060 0.5060 0.5060 0.5050 0.5030
1180.653000 0.4990 0.4900 0.4890 0.4810 0.4780
1187.940848 0.4770 0.4740 0.4650 0.4610 0.4550
1195.221000 0.4480 0.4430 0.4300 0.4170 0.4030
1202.508848 0.3880 0.3720 0.3550 0.3340 0.3210
1209.790000 0.3080 0.2950 0.2690 0.2430 0.2180
1217.077848 0.2180 0.2270 0.2410 0.2760 0.3500
1224.359000 0.3620 0.3750 0.3880 0.3940 0.3950
1231.646848 0.3940 0.3930 0.3900 0.3870 0.3850
1238.928000 0.3840 0.3820 0.3820 0.3790 0.3770
1246.215848 0.3750 0.3720 0.3690 0.3630 0.3560
1253.496000 0.3550 0.3500 0.3440 0.3370 0.3340
1260.783848 0.3300 0.3210 0.3150 0.3100 0.3040
1268.065000 0.2980 0.2940 0.2920 0.2920 0.2910
1275.352848 0.2830 0.2730 0.2640 0.2560 0.2480
1282.634000 0.2400 0.2310 0.2220 0.2110 0.1970
1289.921848 0.1800 0.1700 0.1640 0.1580 0.1510
1297.203000 0.1470 0.1470 0.1640 0.1860 0.2190
1304.490848 0.2450 0.2600 0.2720 0.2830 0.2940
1311.772000 0.2980 0.3100 0.3110 0.3100 0.3070
1319.059848 0.3050 0.2990 0.2950 0.2920 0.2890
1326.340000 0.2880 0.2850 0.2850 0.2830 0.2820
1333.627848 0.2800 0.2790 0.2780 0.2760 0.2750
1340.909000 0.2730 0.2720 0.2720 0.2700 0.2690
1348.196848 0.2690 0.2660 0.2620 0.2570 0.2510
1355.478000 0.2480 0.2470 0.2340 0.2270 0.2220
1362.765848 0.2220 0.2210 0.2190 0.2150 0.2130
1370.047000 0.2120 0.2120 0.2110 0.2090 0.2080
1377.334848 0.2060 0.2050 0.2030 0.2000 0.1960
1384.615000 0.1810 0.1770 0.1680 0.1600 0.1490
1391.902848 0.1420 0.1350 0.1280 0.1220 0.1170
1399.184000 0.1120 0.1090 0.1010 0.0940 0.0930
1406.471848 0.0930 0.0940 0.0940 0.0960 0.0960
1413.753000 0.0970 0.0980 0.1000 0.1030 0.1190
1421.040848 0.1260 0.1310 0.1310 0.1350 0.1360
1428.322000 0.1360 0.1380 0.1390 0.1440 0.1450
1435.609848 0.1480 0.1510 0.1580 0.1650 0.1770
1442.891000 0.1900 0.1950 0.1960 0.1970 0.2020
1450.178848 0.2050 0.2080 0.2110 0.2150 0.2180
1457.459000 0.2190 0.2210 0.2320 0.2380 0.2470
1464.746848 0.2540 0.2630 0.2830 0.3010 0.3070
1472.028000 0.3120 0.3140 0.3200 0.3210 0.3240
1479.315848 0.3260 0.3270 0.3300 0.3340 0.3360
1486.597000 0.3370 0.3390 0.3400 0.3400 0.3420
1493.884848 0.3420 0.3420 0.3420 0.3400 0.3390
1501.166000 0.3390 0.3390 0.3390 0.3370 0.3370
1508.453848 0.3390 0.3390 0.3400 0.3400 0.3400
1515.734000 0.3400 0.3390 0.3360 0.3360 0.3330
1523.021848 0.3330 0.3330 0.3310 0.3310 0.3280
1530.303000 0.3270 0.3260 0.3260 0.3230 0.3210
1537.590848 0.3200 0.3170 0.3140 0.3120 0.3110
1544.872000 0.3070 0.3010 0.2940 0.2880 0.2830
1552.159848 0.2780 0.2750 0.2720 0.2690 0.2660
1559.441000 0.2640 0.2630 0.2600 0.2570 0.2500
1566.728848 0.2440 0.2400 0.2370 0.2340 0.2270
1574.009000 0.2180 0.2120 0.2060 0.2050 0.2030
1581.296848 0.2000 0.1950 0.1900 0.1830 0.1790
1588.578000 0.1730 0.1710 0.1670 0.1570 0.1510
1595.865848 0.1470 0.1450 0.1420 0.1350 0.1320
1603.147000 0.1280 0.1250 0.1200 0.1160 0.1140
1610.434848 0.1130 0.1130 0.1120 0.1120 0.1120
1617.716000 0.1130 0.1140 0.1140 0.1140 0.1160
1625.003848 0.1160 0.1160 0.1170 0.1170 0.1190
1632.284000 0.1190 0.1190 0.1190 0.1190 0.1170
1639.571848 0.1160 0.1160 0.1140 0.1130 0.1120
1646.853000 0.1100 0.1100 0.1090 0.1070 0.1070
1654.140848 0.1070 0.1070 0.1090 0.1090 0.1100
1661.422000 0.1120 0.1130 0.1140 0.1160 0.1190
1668.709848 0.1230 0.1260 0.1290 0.1320 0.1360
1675.991000 0.1380 0.1390 0.1420 0.1450 0.1480
1683.278848 0.1490 0.1510 0.1520 0.1550 0.1570
1690.559000 0.1610 0.1670 0.1800 0.1860 0.1870
1697.846848 0.1890 0.1930 0.1990 0.2080 0.2160
1705.128000 0.2270 0.2370 0.2500 0.2620 0.2750
1712.415848 0.2880 0.3110 0.3340 0.3400 0.3440
1719.697000 0.3490 0.3580 0.3690 0.3880 0.3980
1726.984848 0.4090 0.4200 0.4300 0.4390 0.4430
1734.266000 0.4490 0.4520 0.4610 0.4710 0.4740
1741.553848 0.4780 0.4810 0.4870 0.4960 0.5050
1748.834000 0.5150 0.5240 0.5310 0.5340 0.5410
1756.121848 0.5500 0.5540 0.5600 0.5660 0.5720
1763.403000 0.5790 0.5880 0.5920 0.5990 0.6060
1770.690848 0.6080 0.6140 0.6200 0.6240 0.6310
1777.972000 0.6400 0.6470 0.6550 0.6680 0.6710
1785.259848 0.6730 0.6810 0.6840 0.6880 0.6940
1792.541000 0.7000 0.7050 0.7100 0.7210 0.7290
1799.828848 0.7320 0.7360 0.7360 0.7370 0.7370
1807.110000 0.7400 0.7450 0.7460 0.7510 0.7550
1814.397848 0.7580 0.7620 0.7650 0.7700 0.7710
1821.678000 0.7720 0.7740 0.7770 0.7780 0.7800
1828.965848 0.7810 0.7830 0.7840 0.7860 0.7870
1836.247000 0.7880 0.7880 0.7900 0.7900 0.7910
1843.534848 0.7910 0.7930 0.7930 0.7960 0.7960
1850.816000 0.7970 0.7990 0.7990 0.7990 0.7990
1858.103848 0.7990 0.7990 0.7990 0.8000 0.8000
1865.385000 0.8000 0.8020 0.8020 0.8020 0.8030
1872.672848 0.8040 0.8060 0.8070 0.8070 0.8070
1879.953000 0.8060 0.8040 0.8030 0.8030 0.8030
1887.240848 0.8020 0.8020 0.8020 0.8020 0.8030
1894.522000 0.8030 0.8040 0.8060 0.8070 0.8090
1901.809848 0.8100 0.8120 0.8130 0.8150 0.8180
1909.091000 0.8190 0.8200 0.8220 0.8230 0.8250
1916.378848 0.8250 0.8260 0.8280 0.8290 0.8310
1923.660000 0.8310 0.8320 0.8340 0.8340 0.8350
1930.947848 0.8360 0.8360 0.8380 0.8390 0.8390
1938.229000 0.8410 0.8420 0.8420 0.8440 0.8450
1945.516848 0.8450 0.8470 0.8480 0.8500 0.8500
1952.797000 0.8510 0.8520 0.8520 0.8540 0.8550
1960.084848 0.8550 0.8570 0.8580 0.8580 0.8600
1967.366000 0.8610 0.8610 0.8630 0.8640 0.8640
1974.653848 0.8660 0.8670 0.8670 0.8680 0.8700
1981.935000 0.8700 0.8730 0.8740 0.8760 0.8770
1989.222848 0.8790 0.8800 0.8820 0.8850 0.8860
1996.504000 0.8870 0.8890 0.8900 0.8920 0.8950
2003.791848 0.8960 0.8980 0.8990 0.9010 0.9020
2011.072000 0.9030 0.9060 0.9080 0.9090 0.9110
2018.359848 0.9120 0.9140 0.9170 0.9180 0.9190
2025.641000 0.9210 0.9220 0.9240 0.9250 0.9280
2032.928848 0.9300 0.9310 0.9330 0.9340 0.9350
2040.210000 0.9380 0.9400 0.9430 0.9440 0.9460
2047.497848 0.9490 0.9500 0.9530 0.9540 0.9560
2054.779000 0.9590 0.9600 0.9630 0.9650 0.9660
2062.066848 0.9690 0.9700 0.9730 0.9750 0.9780
2069.347000 0.9790 0.9810 0.9830 0.9850 0.9880
2076.634848 0.9890 0.9910 0.9940 0.9950 1.0000
2083.916000 1.0010 1.0020 1.0040 1.0040 1.0050
2091.203848 1.0050 1.0050 1.0040 1.0040 1.0020
2098.485000 1.0010 1.0000 1.0000 1.0000 0.9980
2105.772848 0.9970 0.9940 0.9920 0.9910 0.9880
2113.054000 0.9850 0.9830 0.9810 0.9790 0.9790
2120.341848 0.9780 0.9750 0.9720 0.9670 0.9650
2127.622000 0.9630 0.9620 0.9600 0.9600 0.9600
2134.909848 0.9600 0.9600 0.9620 0.9620 0.9630
2142.191000 0.9650 0.9660 0.9670 0.9700 0.9730
2149.478848 0.9750 0.9750 0.9760 0.9760 0.9780
2156.760000 0.9780 0.9780 0.9790 0.9790 0.9790
2164.047848 0.9810 0.9810 0.9810 0.9810 0.9810
2171.329000 0.9810 0.9820 0.9820 0.9820 0.9830
2178.616848 0.9830 0.9830 0.9830 0.9830 0.9830
2185.897000 0.9830 0.9830 0.9820 0.9820 0.9810
2193.184848 0.9810 0.9790 0.9790 0.9780 0.9780
2200.466000 0.9760 0.9760 0.9750 0.9730 0.9730
2207.753848 0.9720 0.9720 0.9700 0.9700 0.9690
2215.035000 0.9690 0.9670 0.9670 0.9670 0.9660
2222.322848 0.9660 0.9650 0.9650 0.9650 0.9650
2229.604000 0.9630 0.9620 0.9600 0.9590 0.9590
2236.891848 0.9570 0.9560 0.9540 0.9540 0.9510
2244.173000 0.9500 0.9490 0.9470 0.9440 0.9430
2251.460848 0.9410 0.9380 0.9370 0.9340 0.9310
2258.741000 0.9300 0.9250 0.9240 0.9210 0.9170
2266.028848 0.9150 0.9120 0.9090 0.9080 0.9060
2273.310000 0.9060 0.9050 0.9050 0.9050 0.9050
2280.597848 0.9060 0.9060 0.9060 0.9080 0.9090
2287.879000 0.9110 0.9110 0.9120 0.9150 0.9180
2295.166848 0.9190 0.9210 0.9220 0.9240 0.9250
2302.448000 0.9250 0.9280 0.9300 0.9310 0.9330
2309.735848 0.9330 0.9330 0.9340 0.9340 0.9340
2317.016000 0.9340 0.9340 0.9340 0.9340 0.9340
2324.303848 0.9340 0.9330 0.9330 0.9330 0.9310
2331.585000 0.9310 0.9300 0.9300 0.9300 0.9280
2338.872848 0.9280 0.9280 0.9270 0.9270 0.9270
2346.154000 0.9270 0.9270 0.9270 0.9250 0.9250
2353.441848 0.9240 0.9240 0.9240 0.9240 0.9240
2360.723000 0.9240 0.9250 0.9250 0.9270 0.9280
2368.010848 0.9300 0.9310 0.9310 0.9330 0.9340
2375.292000 0.9350 0.9350 0.9350 0.9350 0.9340
2382.579848 0.9340 0.9340 0.9340 0.9330 0.9330
2389.860000 0.9330 0.9310 0.9310 0.9310 0.9310
2397.147848 0.9300 0.9280 0.9270 0.9270 0.9250
2404.429000 0.9240 0.9240 0.9220 0.9220 0.9210
2411.716848 0.9210 0.9180 0.9150 0.9150 0.9140
2418.998000 0.9120 0.9090 0.9050 0.9030 0.9020
2426.285848 0.8990 0.8950 0.8920 0.8820 0.8740
2433.566000 0.8630 0.8540 0.8540 0.8660 0.8730
2440.853848 0.8740 0.8770 0.8790 0.8800 0.8800
2448.135000 0.8820 0.8820 0.8800 0.8800 0.8790
2455.422848 0.8790 0.8770 0.8760 0.8740 0.8740
2462.704000 0.8730 0.8710 0.8700 0.8700 0.8680
2469.991848 0.8670 0.8640 0.8630 0.8610 0.8600
2477.273000 0.8580 0.8570 0.8570 0.8550 0.8540
2484.560848 0.8540 0.8540 0.8520 0.8520 0.8520
2491.842000 0.8510 0.8500 0.8500 0.8480 0.8480
2499.129848 0.8470 0.8470 0.8470 0.8450 0.8450
2506.410000 0.8440 0.8440 0.8420 0.8410 0.8410
2513.697848 0.8390 0.8380 0.8350 0.8340 0.8320
2520.979000 0.8310 0.8290 0.8280 0.8260 0.8230
2528.266848 0.8200 0.8180 0.8160 0.8120 0.8060
2535.548000 0.8030 0.8020 0.8000 0.7970 0.7960
2542.835848 0.7870 0.7800 0.7740 0.7680 0.7610
2550.117000 0.7540 0.7490 0.7460 0.7430 0.7400
2557.404848 0.7400 0.7430 0.7460 0.7510 0.7550
2564.685000 0.7620 0.7700 0.7800 0.7870 0.7960
2571.972848 0.8020 0.8070 0.8120 0.8150 0.8190
2579.254000 0.8230 0.8290 0.8340 0.8360 0.8380
2586.541848 0.8390 0.8390 0.8390 0.8410 0.8410
2593.823000 0.8410 0.8420 0.8420 0.8420 0.8420
2601.110848 0.8420 0.8420 0.8420 0.8420 0.8420
2608.392000 0.8420 0.8420 0.8420 0.8420 0.8410
2615.679848 0.8410 0.8380 0.8350 0.8340 0.8310
2622.960000 0.8290 0.8290 0.8280 0.8260 0.8260
2630.247848 0.8250 0.8250 0.8230 0.8230 0.8220
2637.529000 0.8220 0.8220 0.8230 0.8250 0.8250
2644.816848 0.8250 0.8220 0.8220 0.8200 0.8190
2652.098000 0.8180 0.8180 0.8180 0.8150 0.8150
2659.385848 0.8130 0.8120 0.8120 0.8100 0.8100
2666.667000 0.8090 0.8090 0.8070 0.8070 0.8060
2673.954848 0.8060 0.8040 0.8030 0.8030 0.8020
2681.236000 0.8000 0.8000 0.7990 0.7970 0.7940
2688.523848 0.7900 0.7840 0.7800 0.7770 0.7750
2695.804000 0.7720 0.7710 0.7700 0.7680 0.7650
2703.091848 0.7620 0.7610 0.7590 0.7580 0.7560
2710.373000 0.7540 0.7520 0.7460 0.7400 0.7390
2717.660848 0.7350 0.7290 0.7260 0.7260 0.7230
2724.942000 0.7230 0.7210 0.7210 0.7200 0.7190
2732.229848 0.7170 0.7160 0.7140 0.7110 0.7070
2739.510000 0.7050 0.7030 0.7010 0.7000 0.6920
2746.797848 0.6890 0.6870 0.6840 0.6810 0.6790
2754.079000 0.6780 0.6760 0.6710 0.6680 0.6650
2761.366848 0.6620 0.6590 0.6520 0.6470 0.6390
2768.648000 0.6310 0.6270 0.6220 0.6200 0.6150
2775.935848 0.6140 0.6040 0.5950 0.5790 0.5700
2783.217000 0.5610 0.5530 0.5410 0.5320 0.5240
2790.504848 0.5090 0.4960 0.4870 0.4800 0.4770
2797.786000 0.4740 0.4710 0.4700 0.4700 0.4710
2805.073848 0.4710 0.4740 0.4770 0.4810 0.4840
2812.354000 0.4910 0.5050 0.5090 0.5160 0.5190
2819.641848 0.5220 0.5290 0.5320 0.5320 0.5280
2826.923000 0.5220 0.5150 0.5120 0.5020 0.4900
2834.210848 0.4680 0.4540 0.4430 0.4270 0.4040
2841.492000 0.3630 0.3520 0.3360 0.3240 0.3110
2848.779848 0.2880 0.2860 0.2820 0.2750 0.2720
2856.061000 0.2700 0.2720 0.2730 0.2760 0.2830
2863.348848 0.2880 0.2920 0.2990 0.3010 0.3020
2870.629000 0.3040 0.3100 0.3180 0.3330 0.3400
2877.916848 0.3430 0.3430 0.3400 0.3390 0.3360
2885.198000 0.3330 0.3300 0.3230 0.3200 0.3050
2892.485848 0.3010 0.2790 0.2750 0.2690 0.2620
2899.767000 0.2510 0.2430 0.2350 0.2270 0.2220
2907.054848 0.2180 0.2110 0.2000 0.1920 0.1830
2914.336000 0.1790 0.1760 0.1730 0.1710 0.1700
2921.623848 0.1700 0.1680 0.1680 0.1680 0.1700
2928.905000 0.1710 0.1740 0.1770 0.1800 0.1830
2936.192848 0.1870 0.1920 0.1950 0.1960 0.1960
2943.473000 0.1970 0.1990 0.1990 0.2000 0.2030
2950.760848 0.2110 0.2130 0.2210 0.2220 0.2310
2958.042000 0.2340 0.2370 0.2380 0.2450 0.2570
2965.329848 0.2690 0.2910 0.2990 0.3040 0.3140
2972.611000 0.3340 0.3460 0.3530 0.3630 0.3750
2979.898848 0.3930 0.4060 0.4160 0.4250 0.4350
2987.180000 0.4480 0.4570 0.4640 0.4710 0.4750
2994.467848 0.4800 0.4830 0.4890 0.4940 0.4960
3001.748000 0.5000 0.5020 0.5020 0.5050 0.5060
3009.035848 0.5060 0.5060 0.5080 0.5080 0.5060
3016.317000 0.5020 0.4990 0.4990 0.4960 0.4930
3023.604848 0.4910 0.4900 0.4870 0.4870 0.4840
3030.886000 0.4810 0.4780 0.4750 0.4710 0.4610
3038.173848 0.4590 0.4570 0.4520 0.4490 0.4480
3045.455000 0.4460 0.4450 0.4380 0.4300 0.4250
3052.742848 0.4200 0.4140 0.4100 0.4030 0.4030
3060.023000 0.4000 0.3950 0.3930 0.3900 0.3810
3067.310848 0.3780 0.3770 0.3720 0.3660 0.3600
3074.592000 0.3560 0.3550 0.3520 0.3500 0.3470
3081.879848 0.3430 0.3330 0.3310 0.3280 0.3240
3089.161000 0.3210 0.3170 0.3100 0.3020 0.2990
3096.448848 0.2950 0.2890 0.2830 0.2780 0.2750
3103.730000 0.2700 0.2670 0.2640 0.2600 0.2540
3111.017848 0.2510 0.2500 0.2480 0.2450 0.2320
3118.298000 0.2240 0.2210 0.2160 0.2130 0.2110
3125.585848 0.2050 0.2000 0.1990 0.1970 0.1960
3132.867000 0.1920 0.1860 0.1800 0.1770 0.1700
3140.154848 0.1680 0.1670 0.1640 0.1630 0.1610
3147.436000 0.1580 0.1570 0.1550 0.1540 0.1510
3154.723848 0.1490 0.1480 0.1480 0.1470 0.1450
3162.005000 0.1440 0.1440 0.1420 0.1420 0.1420
3169.292848 0.1410 0.1410 0.1410 0.1410 0.1410
3176.573000 0.1390 0.1390 0.1390 0.1390 0.1390
3183.860848 0.1380 0.1380 0.1380 0.1380 0.1380
3191.142000 0.1380 0.1360 0.1360 0.1360 0.1360
3198.429848 0.1380 0.1380 0.1380 0.1380 0.1380
3205.711000 0.1390 0.1390 0.1390 0.1390 0.1390
3212.998848 0.1410 0.1420 0.1420 0.1440 0.1440
3220.280000 0.1450 0.1450 0.1470 0.1480 0.1490
3227.567848 0.1510 0.1520 0.1540 0.1540 0.1550
3234.849000 0.1550 0.1550 0.1550 0.1550 0.1550
3242.136848 0.1570 0.1570 0.1570 0.1580 0.1580
3249.417000 0.1600 0.1600 0.1600 0.1600 0.1600
3256.704848 0.1600 0.1600 0.1580 0.1580 0.1570
3263.986000 0.1570 0.1550 0.1550 0.1520 0.1520
3271.273848 0.1520 0.1520 0.1510 0.1510 0.1510
3278.555000 0.1490 0.1480 0.1480 0.1470 0.1470
3285.842848 0.1450 0.1440 0.1440 0.1440 0.1440
3293.124000 0.1420 0.1420 0.1420 0.1420 0.1410
3300.411848 0.1390 0.1390 0.1390 0.1390 0.1390
3307.692000 0.1410 0.1410 0.1420 0.1420 0.1420
3314.979848 0.1420 0.1420 0.1410 0.1410 0.1390
3322.261000 0.1380 0.1360 0.1360 0.1350 0.1330
3329.548848 0.1330 0.1320 0.1320 0.1330 0.1350
3336.830000 0.1350 0.1360 0.1360 0.1360 0.1360
3344.117848 0.1360 0.1350 0.1350 0.1330 0.1330
3351.399000 0.1330 0.1330 0.1330 0.1330 0.1330
3358.686848 0.1330 0.1350 0.1350 0.1350 0.1350
3365.968000 0.1360 0.1360 0.1390 0.1390 0.1410
3373.255848 0.1410 0.1410 0.1410 0.1410 0.1420
3380.536000 0.1420 0.1420 0.1420 0.1440 0.1450
3387.823848 0.1470 0.1470 0.1490 0.1540 0.1550
3395.105000 0.1570 0.1600 0.1680 0.1740 0.1800
3402.392848 0.1860 0.1920 0.1950 0.1970 0.1990
3409.674000 0.2030 0.2110 0.2160 0.2220 0.2270
3416.961848 0.2350 0.2500 0.2640 0.2730 0.2800
3424.242000 0.2860 0.2920 0.2980 0.3080 0.3170
3431.529848 0.3370 0.3520 0.3680 0.3790 0.3910
3438.811000 0.4010 0.4130 0.4260 0.4380 0.4520
3446.098848 0.4650 0.4780 0.4930 0.5060 0.5190
3453.380000 0.5320 0.5450 0.5580 0.5700 0.5820
3460.667848 0.5920 0.6010 0.6050 0.6200 0.6390
3467.949000 0.6460 0.6530 0.6660 0.6730 0.6890
3475.236848 0.6970 0.7010 0.7080 0.7130 0.7200
3482.518000 0.7260 0.7330 0.7420 0.7460 0.7490
3489.805848 0.7510 0.7540 0.7580 0.7650 0.7680
3497.086000 0.7710 0.7750 0.7810 0.7870 0.7930
3504.373848 0.7960 0.7990 0.8000 0.8030 0.8060
3511.655000 0.8090 0.8100 0.8120 0.8130 0.8150
3518.942848 0.8180 0.8280 0.8310 0.8340 0.8350
3526.224000 0.8350 0.8360 0.8360 0.8380 0.8380
3533.511848 0.8390 0.8390 0.8410 0.8410 0.8410
3540.793000 0.8410 0.8410 0.8410 0.8410 0.8420
3548.080848 0.8420 0.8420 0.8420 0.8420 0.8420
3555.361000 0.8420 0.8420 0.8420 0.8420 0.8420
3562.648848 0.8420 0.8420 0.8420 0.8420 0.8420
3569.930000 0.8420 0.8420 0.8410 0.8410 0.8410
3577.217848 0.8410 0.8410 0.8410 0.8410 0.8410
3584.499000 0.8390 0.8390 0.8390 0.8380 0.8380
3591.786848 0.8380 0.8390 0.8410 0.8410 0.8440
3599.068000 0.8450 0.8470 0.8450 0.8470
##END=
