##TITLE=2-BUTENE, 1,4-DICHLORO-
##JCAMP-DX=4.24
##DATA TYPE=INFRARED SPECTRUM
##CLASS=COBLENTZ III
##ORIGIN=DOW CHEMICAL COMPANY
##OWNER=COBLENTZ SOCIETY
Collection (C) 2018 copyright by the U.S. Secretary of Commerce
on behalf of the United States of America. All rights reserved.
##DATE=1963/11/12
##NAMES=(2E)-1,4-dichloro-2-butene
##CAS REGISTRY NO=764-41-0
##MOLFORM=C4 H6 Cl2
##SOURCE REFERENCE=COBLENTZ NO. 10039
##$NIST SOURCE=COBLENTZ
##$NIST IMAGE=cob10039
##SPECTROMETER/DATA SYSTEM=DOW KBr FOREPRISM-GRATING
##INSTRUMENT PARAMETERS=BLAZED AT 3.5, 12.0, 20.0 MICRON, CHANGED AT 5.0, 7.5, 14.9 MICRON
##STATE=SOLUTION (10% IN CCl4 FOR 3800-1333 AND 10% IN CS2 FOR 1333-400 CM^-^1)
##PATH LENGTH=0.011, 0.010 CM
$$SPECTRAL CONTAMINATION DUE TO CCl4 AROUND 1550, AND CS2 AROUND 855 CM^-^1
##SAMPLING PROCEDURE=TRANSMISSION
##RESOLUTION=4
##DATA PROCESSING=DIGITIZED BY NIST FROM HARD COPY (FROM TWO SEGMENTS)
##XUNITS=1/CM
##YUNITS=TRANSMITTANCE
##XFACTOR=1.000000
##YFACTOR=1
##DELTAX=0.869567
##FIRSTX=385.217
##LASTX=3795.66
##FIRSTY=0.201
##MAXX=3795.66
##MINX=385.217
##MAXY=1.023
##MINY=0.047
##NPOINTS=3923
##XYDATA=(X++(Y..Y))
385.217000 0.2010 0.2040 0.2050 0.2050 0.2080
389.564836 0.2200 0.2310 0.2350 0.2390 0.2490
393.912672 0.2540 0.2640 0.2760 0.2910 0.3020
398.260508 0.3239 0.3509 0.3878 0.4248 0.4797
402.608343 0.5270 0.5640 0.5949 0.6209 0.6439
406.956179 0.6629 0.6819 0.7009 0.7199 0.7419
411.304015 0.7600 0.7650 0.7680 0.7690 0.7690
415.651851 0.7680 0.7650 0.7610 0.7431 0.7191
419.999687 0.6940 0.6670 0.6590 0.6370 0.6340
424.347523 0.6370 0.6529 0.6560 0.7107 0.7558
428.695359 0.7950 0.8399 0.8769 0.9029 0.9150
433.043194 0.9299 0.9449 0.9560 0.9610 0.9640
437.391030 0.9680 0.9710 0.9720 0.9790 0.9860
441.738866 0.9870 0.9870 0.9870 0.9890 0.9900
446.086702 0.9910 0.9970 0.9980 0.9980 1.0000
450.434538 1.0000 1.0000 1.0000 0.9980 1.0020
454.782374 1.0040 1.0050 1.0050 1.0060 1.0080
459.130210 1.0100 1.0160 1.0160 1.0140 1.0140
463.478045 1.0130 1.0140 1.0160 1.0200 1.0200
467.825881 1.0230 1.0230 1.0230 1.0230 1.0210
472.173717 1.0210 1.0200 1.0190 1.0170 1.0170
476.521553 1.0160 1.0140 1.0140 1.0130 1.0130
480.869389 1.0120 1.0120 1.0100 1.0100 1.0120
485.217225 1.0120 1.0130 1.0140 1.0140 1.0130
489.565060 1.0130 1.0130 1.0120 1.0130 1.0120
493.912896 1.0120 1.0100 1.0100 1.0090 1.0100
498.260732 1.0120 1.0140 1.0140 1.0120 1.0100
502.608568 1.0100 1.0100 1.0120 1.0120 1.0090
506.956404 1.0090 1.0080 1.0080 1.0080 1.0060
511.304240 1.0060 1.0040 1.0040 1.0020 1.0020
515.652076 1.0020 1.0010 1.0010 1.0010 1.0010
519.999911 1.0000 1.0000 0.9980 0.9970 0.9970
524.347747 0.9950 0.9950 0.9950 0.9950 0.9940
528.695583 0.9940 0.9940 0.9940 0.9930 0.9930
533.043419 0.9930 0.9930 0.9940 0.9940 0.9940
537.391255 0.9940 0.9950 0.9950 0.9950 0.9950
541.739091 0.9950 0.9950 0.9950 0.9950 0.9950
546.086927 0.9950 0.9940 0.9940 0.9940 0.9930
550.434762 0.9910 0.9900 0.9890 0.9890 0.9860
554.782598 0.9820 0.9790 0.9780 0.9750 0.9710
559.130434 0.9640 0.9570 0.9520 0.9520 0.9530
563.478270 0.9570 0.9640 0.9700 0.9750 0.9780
567.826106 0.9790 0.9800 0.9870 0.9900 0.9900
572.173942 0.9910 0.9910 0.9940 0.9950 0.9970
576.521778 0.9980 0.9980 0.9980 0.9980 1.0000
580.869613 1.0010 1.0020 1.0020 1.0020 1.0040
585.217449 1.0040 1.0040 1.0040 1.0040 1.0020
589.565285 1.0020 1.0010 1.0010 1.0010 1.0010
593.913121 1.0010 1.0010 1.0000 1.0000 1.0000
598.260957 1.0000 1.0000 1.0000 1.0000 0.9980
602.608793 0.9970 0.9970 0.9950 0.9950 0.9940
606.956629 0.9940 0.9930 0.9930 0.9910 0.9900
611.304464 0.9890 0.9870 0.9860 0.9850 0.9830
615.652300 0.9820 0.9790 0.9790 0.9780 0.9760
620.000136 0.9720 0.9710 0.9680 0.9640 0.9600
624.347972 0.9570 0.9520 0.9500 0.9480 0.9440
628.695808 0.9420 0.9350 0.9310 0.9300 0.9290
633.043644 0.9270 0.9190 0.9120 0.9070 0.8990
637.391480 0.8990 0.8910 0.8820 0.8780 0.8710
641.739315 0.8660 0.8610 0.8540 0.8500 0.8371
646.087151 0.8320 0.8220 0.8170 0.8050 0.7880
650.434987 0.7730 0.7600 0.7560 0.7460 0.7380
654.782823 0.7240 0.7150 0.6920 0.6750 0.6640
659.130659 0.6301 0.6031 0.5721 0.5441 0.5231
663.478495 0.5060 0.5040 0.5010 0.4860 0.4850
667.826331 0.4850 0.4910 0.4980 0.5050 0.5120
672.174166 0.5190 0.5320 0.5340 0.5380 0.5380
676.522002 0.5360 0.5350 0.5350 0.5360 0.5390
680.869838 0.5440 0.5470 0.5500 0.5610 0.5660
685.217674 0.5730 0.5740 0.5740 0.5730 0.5690
689.565510 0.5640 0.5550 0.5470 0.5360 0.5250
693.913346 0.5140 0.5020 0.4910 0.4780 0.4591
698.261181 0.4380 0.4180 0.3960 0.3760 0.3580
702.609017 0.3430 0.3310 0.3220 0.3091 0.2881
706.956853 0.2750 0.2670 0.2580 0.2460 0.2240
711.304689 0.2130 0.2000 0.1980 0.2000 0.2050
715.652525 0.2110 0.2160 0.2230 0.2340 0.2520
720.000361 0.2759 0.2920 0.3109 0.3180 0.3329
724.348197 0.3500 0.3710 0.4300 0.4610 0.4939
728.696032 0.5309 0.5689 0.6059 0.6369 0.6529
733.043868 0.6790 0.6940 0.7080 0.7190 0.7340
737.391704 0.7540 0.7620 0.7760 0.7910 0.8049
741.739540 0.8060 0.8130 0.8200 0.8310 0.8330
746.087376 0.8390 0.8430 0.8500 0.8510 0.8590
750.435212 0.8660 0.8710 0.8740 0.8760 0.8780
754.783048 0.8780 0.8800 0.8800 0.8800 0.8780
759.130883 0.8770 0.8740 0.8730 0.8710 0.8710
763.478719 0.8710 0.8710 0.8700 0.8700 0.8700
767.826555 0.8710 0.8710 0.8740 0.8770 0.8800
772.174391 0.8840 0.8910 0.8920 0.8920 0.8920
776.522227 0.8950 0.8960 0.9000 0.9030 0.9040
780.870063 0.9040 0.9050 0.9050 0.9050 0.9050
785.217899 0.9050 0.9070 0.9080 0.9110 0.9140
789.565734 0.9150 0.9150 0.9150 0.9150 0.9160
793.913570 0.9190 0.9200 0.9230 0.9260 0.9270
798.261406 0.9290 0.9300 0.9310 0.9330 0.9330
802.609242 0.9340 0.9340 0.9350 0.9350 0.9350
806.957078 0.9350 0.9350 0.9370 0.9380 0.9380
811.304914 0.9370 0.9370 0.9400 0.9400 0.9420
815.652750 0.9420 0.9420 0.9420 0.9420 0.9420
820.000585 0.9440 0.9450 0.9450 0.9450 0.9460
824.348421 0.9460 0.9480 0.9480 0.9490 0.9490
828.696257 0.9490 0.9480 0.9460 0.9450 0.9440
833.044093 0.9420 0.9410 0.9370 0.9340 0.9330
837.391929 0.9310 0.9220 0.9150 0.9120 0.9010
841.739765 0.8950 0.8920 0.8810 0.8770 0.8710
846.087601 0.8610 0.8540 0.8440 0.8390 0.8280
850.435436 0.8200 0.8140 0.8130 0.8090 0.8070
854.783272 0.8070 0.8090 0.8090 0.8100 0.8110
859.131108 0.8140 0.8200 0.8240 0.8250 0.8280
863.478944 0.8320 0.8320 0.8330 0.8360 0.8400
867.826780 0.8410 0.8440 0.8470 0.8500 0.8500
872.174616 0.8510 0.8510 0.8540 0.8580 0.8610
876.522452 0.8650 0.8700 0.8710 0.8730 0.8760
880.870287 0.8800 0.8800 0.8810 0.8840 0.8850
885.218123 0.8880 0.8920 0.8920 0.8930 0.8990
889.565959 0.9010 0.9040 0.9070 0.9080 0.9100
893.913795 0.9110 0.9110 0.9110 0.9100 0.9080
898.261631 0.9050 0.9000 0.8930 0.8860 0.8810
902.609467 0.8730 0.8580 0.8411 0.8290 0.8250
906.957302 0.8280 0.8320 0.8410 0.8510 0.8540
911.305138 0.8550 0.8540 0.8520 0.8460 0.8350
915.652974 0.8330 0.8350 0.8410 0.8470 0.8540
920.000810 0.8630 0.8710 0.8710 0.8700 0.8700
924.348646 0.8660 0.8630 0.8620 0.8610 0.8590
928.696482 0.8590 0.8580 0.8560 0.8560 0.8550
933.044318 0.8540 0.8520 0.8520 0.8510 0.8460
937.392153 0.8430 0.8360 0.8330 0.8210 0.8110
941.739989 0.7990 0.7840 0.7670 0.7490 0.7350
946.087825 0.7090 0.6850 0.6621 0.6062 0.5572
950.435661 0.4980 0.4370 0.4010 0.3540 0.2711
954.783497 0.1732 0.1441 0.1231 0.1041 0.0950
959.131333 0.0850 0.0680 0.0610 0.0470 0.0470
963.479169 0.0610 0.1319 0.1639 0.2258 0.3177
967.827004 0.3471 0.4721 0.5680 0.6170 0.6630
972.174840 0.6850 0.7080 0.7260 0.7599 0.7799
976.522676 0.7980 0.8130 0.8260 0.8360 0.8480
980.870512 0.8560 0.8610 0.8670 0.8710 0.8780
985.218348 0.8850 0.8920 0.8950 0.8960 0.9010
989.566184 0.9040 0.9080 0.9120 0.9120 0.9140
993.914020 0.9150 0.9150 0.9150 0.9150 0.9150
998.261855 0.9150 0.9140 0.9120 0.9080 0.9050
1002.609691 0.9030 0.9000 0.8970 0.8930 0.8920
1006.957527 0.8840 0.8800 0.8760 0.8700 0.8650
1011.305363 0.8620 0.8610 0.8620 0.8630 0.8660
1015.653199 0.8760 0.8810 0.8930 0.8950 0.9070
1020.001035 0.9230 0.9310 0.9340 0.9370 0.9400
1024.348871 0.9440 0.9440 0.9450 0.9450 0.9480
1028.696706 0.9490 0.9500 0.9530 0.9550 0.9550
1033.044542 0.9550 0.9560 0.9560 0.9550 0.9550
1037.392378 0.9550 0.9530 0.9530 0.9520 0.9520
1041.740214 0.9480 0.9460 0.9450 0.9440 0.9410
1046.088050 0.9400 0.9380 0.9370 0.9380 0.9400
1050.435886 0.9410 0.9420 0.9420 0.9420 0.9440
1054.783722 0.9450 0.9450 0.9450 0.9450 0.9450
1059.131557 0.9440 0.9400 0.9350 0.9340 0.9330
1063.479393 0.9270 0.9220 0.9180 0.9140 0.9110
1067.827229 0.9070 0.9010 0.8920 0.8810 0.8730
1072.175065 0.8650 0.8460 0.8140 0.7830 0.7620
1076.522901 0.7340 0.7150 0.7000 0.6751 0.6710
1080.870737 0.6750 0.6780 0.6920 0.6980 0.7609
1085.218572 0.8159 0.8330 0.8549 0.8709 0.8929
1089.566408 0.9150 0.9300 0.9400 0.9490 0.9550
1093.914244 0.9570 0.9610 0.9640 0.9650 0.9670
1098.262080 0.9710 0.9740 0.9750 0.9760 0.9780
1102.609916 0.9790 0.9790 0.9790 0.9780 0.9780
1106.957752 0.9780 0.9780 0.9780 0.9790 0.9790
1111.305588 0.9780 0.9760 0.9760 0.9760 0.9760
1115.653423 0.9760 0.9760 0.9760 0.9750 0.9750
1120.001259 0.9740 0.9710 0.9710 0.9700 0.9700
1124.349095 0.9680 0.9680 0.9670 0.9670 0.9640
1128.696931 0.9560 0.9460 0.9370 0.9330 0.9200
1133.044767 0.9010 0.8850 0.8550 0.8130 0.8030
1137.392603 0.8030 0.8200 0.8649 0.8929 0.9179
1141.740439 0.9230 0.9330 0.9350 0.9380 0.9400
1146.088274 0.9410 0.9400 0.9400 0.9350 0.9330
1150.436110 0.9250 0.9180 0.9140 0.9080 0.9030
1154.783946 0.9030 0.9070 0.9140 0.9230 0.9300
1159.131782 0.9370 0.9420 0.9480 0.9550 0.9570
1163.479618 0.9570 0.9490 0.9420 0.9370 0.9330
1167.827454 0.9330 0.9300 0.9140 0.9070 0.9030
1172.175290 0.8990 0.8990 0.8990 0.9000 0.9010
1176.523125 0.9050 0.9120 0.9160 0.9200 0.9230
1180.870961 0.9270 0.9270 0.9290 0.9300 0.9310
1185.218797 0.9310 0.9310 0.9310 0.9310 0.9330
1189.566633 0.9330 0.9310 0.9310 0.9310 0.9310
1193.914469 0.9310 0.9330 0.9330 0.9340 0.9340
1198.262305 0.9340 0.9340 0.9340 0.9340 0.9340
1202.610141 0.9340 0.9340 0.9340 0.9340 0.9340
1206.957976 0.9330 0.9330 0.9310 0.9290 0.9270
1211.305812 0.9270 0.9250 0.9220 0.9190 0.9150
1215.653648 0.9120 0.9100 0.9070 0.9050 0.9000
1220.001484 0.8960 0.8930 0.8910 0.8850 0.8800
1224.349320 0.8770 0.8710 0.8700 0.8610 0.8560
1228.697156 0.8410 0.8250 0.8130 0.7920 0.7760
1233.044992 0.7500 0.7310 0.6931 0.6342 0.5892
1237.392827 0.5359 0.4929 0.3990 0.3630 0.3370
1241.740663 0.3200 0.3140 0.2870 0.2521 0.1792
1246.088499 0.1440 0.1441 0.1930 0.2130 0.3130
1250.436335 0.4139 0.5468 0.5719 0.5890 0.5960
1254.784171 0.5950 0.5770 0.5610 0.5350 0.5240
1259.132007 0.5240 0.5799 0.6528 0.6749 0.6939
1263.479843 0.7110 0.7310 0.7420 0.7450 0.7430
1267.827678 0.7410 0.7340 0.7260 0.7080 0.6891
1272.175514 0.6750 0.6590 0.6530 0.6560 0.6670
1276.523350 0.6790 0.6940 0.7080 0.7260 0.7579
1280.871186 0.7770 0.7820 0.7950 0.8010 0.8070
1285.219022 0.8140 0.8140 0.8130 0.8110 0.8050
1289.566858 0.7970 0.7820 0.7710 0.7600 0.7540
1293.914693 0.7540 0.7600 0.7610 0.7600 0.7580
1298.262529 0.7530 0.7470 0.7420 0.7370 0.7270
1302.610365 0.7240 0.7150 0.6970 0.6751 0.6551
1306.958201 0.6440 0.6320 0.6320 0.6560 0.6640
1311.306037 0.6660 0.6630 0.6600 0.6450 0.6191
1315.653873 0.5869 0.5429 0.5100 0.4740 0.4740
1320.001709 0.5040 0.5350 0.5540 0.6039 0.6768
1324.349544 0.7001 0.7471 0.7950 0.8160 0.8310
1328.697380 0.8400 0.8520 0.8620 0.8700 0.8710
1333.045216 0.8840 0.8920 0.8950 0.9010 0.9120
1337.393052 0.9140 0.9190 0.9250 0.9270 0.9310
1341.740888 0.9370 0.9400 0.9420 0.9460 0.9480
1346.088724 0.9500 0.9520 0.9550 0.9560 0.9590
1350.436560 0.9610 0.9630 0.9640 0.9640 0.9640
1354.784395 0.9650 0.9670 0.9680 0.9710 0.9710
1359.132231 0.9740 0.9750 0.9750 0.9750 0.9750
1363.480067 0.9780 0.9790 0.9800 0.9800 0.9800
1367.827903 0.9820 0.9820 0.9850 0.9860 0.9860
1372.175739 0.9860 0.9870 0.9870 0.9900 0.9900
1376.523575 0.9900 0.9910 0.9910 0.9930 0.9930
1380.871411 0.9980 1.0020 1.0050 1.0060 1.0060
1385.219246 1.0040 1.0010 1.0010 1.0000 0.9980
1389.567082 0.9950 0.9940 0.9930 0.9910 0.9900
1393.914918 0.9890 0.9860 0.9830 0.9820 0.9820
1398.262754 0.9820 0.9800 0.9790 0.9780 0.9780
1402.610590 0.9780 0.9780 0.9780 0.9780 0.9750
1406.958426 0.9750 0.9740 0.9710 0.9680 0.9670
1411.306262 0.9650 0.9640 0.9630 0.9600 0.9590
1415.654097 0.9560 0.9500 0.9480 0.9460 0.9380
1420.001933 0.9290 0.9270 0.9250 0.9160 0.9120
1424.349769 0.8990 0.8920 0.8800 0.8650 0.8550
1428.697605 0.8219 0.7869 0.7420 0.7020 0.7020
1433.045441 0.7160 0.7300 0.7390 0.7649 0.7650
1437.393277 0.7610 0.7429 0.7149 0.6790 0.6330
1441.741113 0.5760 0.5240 0.4761 0.4600 0.4181
1446.088948 0.4181 0.4592 0.5890 0.6250 0.6820
1450.436784 0.7460 0.8139 0.8320 0.8430 0.8540
1454.784620 0.8710 0.8920 0.8930 0.8930 0.8950
1459.132456 0.8990 0.9120 0.9230 0.9310 0.9330
1463.480292 0.9340 0.9370 0.9370 0.9350 0.9370
1467.828128 0.9420 0.9460 0.9480 0.9460 0.9460
1472.175964 0.9450 0.9440 0.9440 0.9450 0.9450
1476.523799 0.9450 0.9450 0.9450 0.9460 0.9460
1480.871635 0.9420 0.9420 0.9410 0.9400 0.9370
1485.219471 0.9350 0.9340 0.9330 0.9310 0.9260
1489.567307 0.9190 0.9150 0.9080 0.9070 0.9040
1493.915143 0.9030 0.8990 0.8960 0.8920 0.8840
1498.262979 0.8820 0.8800 0.8730 0.8700 0.8650
1502.610814 0.8610 0.8550 0.8520 0.8510 0.8370
1506.958650 0.8210 0.8160 0.8110 0.8090 0.8070
1511.306486 0.8030 0.7990 0.7950 0.7870 0.7830
1515.654322 0.7790 0.7710 0.7650 0.7610 0.7600
1520.002158 0.7580 0.7460 0.7430 0.7410 0.7370
1524.349994 0.7340 0.7280 0.7240 0.7200 0.7150
1528.697830 0.7130 0.7080 0.7020 0.6900 0.6820
1533.045665 0.6710 0.6620 0.6520 0.6480 0.6450
1537.393501 0.6330 0.6320 0.6140 0.5950 0.5880
1541.741337 0.5740 0.5660 0.5620 0.5510 0.5490
1546.089173 0.5400 0.5360 0.5350 0.5340 0.5290
1550.437009 0.5280 0.5250 0.5250 0.5270 0.5290
1554.784845 0.5360 0.5390 0.5420 0.5490 0.5610
1559.132681 0.5680 0.5790 0.5910 0.6020 0.6140
1563.480516 0.6150 0.6300 0.6330 0.6440 0.6490
1567.828352 0.6630 0.6700 0.6770 0.6830 0.6940
1572.176188 0.6960 0.6980 0.7010 0.7040 0.7070
1576.524024 0.7070 0.7080 0.7080 0.7120 0.7130
1580.871860 0.7160 0.7170 0.7190 0.7200 0.7240
1585.219696 0.7240 0.7260 0.7280 0.7320 0.7370
1589.567532 0.7410 0.7470 0.7580 0.7620 0.7680
1593.915367 0.7760 0.7830 0.7970 0.8130 0.8160
1598.263203 0.8240 0.8330 0.8500 0.8590 0.8690
1602.611039 0.8730 0.8800 0.8840 0.8920 0.8960
1606.958875 0.9030 0.9120 0.9180 0.9220 0.9290
1611.306711 0.9350 0.9380 0.9440 0.9460 0.9480
1615.654547 0.9480 0.9480 0.9350 0.9400 0.9560
1620.002383 0.9590 0.9610 0.9610 0.9590 0.9590
1624.350218 0.9590 0.9630 0.9640 0.9640 0.9640
1628.698054 0.9640 0.9670 0.9680 0.9700 0.9700
1633.045890 0.9700 0.9700 0.9650 0.9550 0.9550
1637.393726 0.9710 0.9760 0.9780 0.9790 0.9790
1641.741562 0.9800 0.9800 0.9800 0.9790 0.9740
1646.089398 0.9710 0.9740 0.9740 0.9780 0.9790
1650.437234 0.9800 0.9820 0.9830 0.9830 0.9780
1654.785069 0.9760 0.9760 0.9790 0.9790 0.9780
1659.132905 0.9780 0.9760 0.9720 0.9700 0.9700
1663.480741 0.9720 0.9740 0.9740 0.9720 0.9700
1667.828577 0.9650 0.9610 0.9550 0.9550 0.9450
1672.176413 0.9400 0.9340 0.9180 0.9100 0.9050
1676.524249 0.9120 0.9180 0.9290 0.9380 0.9699
1680.872085 0.9700 0.9640 0.9640 0.9670 0.9780
1685.219920 0.9820 0.9830 0.9830 0.9850 0.9850
1689.567756 0.9850 0.9860 0.9850 0.9820 0.9790
1693.915592 0.9760 0.9800 0.9820 0.9780 0.9670
1698.263428 0.9670 0.9780 0.9780 0.9780 0.9780
1702.611264 0.9750 0.9750 0.9740 0.9750 0.9790
1706.959100 0.9820 0.9820 0.9820 0.9830 0.9830
1711.306935 0.9820 0.9800 0.9780 0.9760 0.9750
1715.654771 0.9720 0.9760 0.9790 0.9830 0.9830
1720.002607 0.9820 0.9800 0.9800 0.9800 0.9820
1724.350443 0.9820 0.9790 0.9780 0.9780 0.9760
1728.698279 0.9760 0.9750 0.9720 0.9680 0.9680
1733.046115 0.9760 0.9780 0.9800 0.9800 0.9800
1737.393951 0.9800 0.9790 0.9820 0.9820 0.9830
1741.741786 0.9830 0.9850 0.9850 0.9850 0.9850
1746.089622 0.9850 0.9850 0.9850 0.9850 0.9830
1750.437458 0.9820 0.9820 0.9800 0.9800 0.9790
1754.785294 0.9800 0.9800 0.9800 0.9820 0.9820
1759.133130 0.9800 0.9820 0.9830 0.9830 0.9850
1763.480966 0.9850 0.9830 0.9830 0.9850 0.9850
1767.828802 0.9850 0.9850 0.9790 0.9850 0.9890
1772.176637 0.9890 0.9910 0.9910 0.9900 0.9900
1776.524473 0.9900 0.9890 0.9890 0.9890 0.9900
1780.872309 0.9910 0.9900 0.9900 0.9910 0.9910
1785.220145 0.9910 0.9900 0.9890 0.9890 0.9890
1789.567981 0.9900 0.9900 0.9910 0.9930 0.9940
1793.915817 0.9950 0.9950 0.9950 0.9950 0.9950
1798.263653 0.9950 0.9950 1.0000 1.0000 1.0000
1802.611488 1.0000 1.0000 0.9980 0.9980 0.9980
1806.959324 0.9980 0.9980 0.9980 0.9980 0.9980
1811.307160 1.0000 1.0000 1.0000 1.0000 1.0000
1815.654996 0.9980 0.9980 0.9980 0.9980 1.0010
1820.002832 1.0000 0.9980 0.9980 0.9980 0.9980
1824.350668 0.9980 0.9980 0.9980 0.9970 0.9970
1828.698504 1.0010 1.0010 1.0010 1.0000 1.0000
1833.046339 1.0000 1.0000 1.0000 1.0000 0.9980
1837.394175 0.9980 0.9980 1.0010 1.0000 0.9980
1841.742011 0.9970 0.9970 0.9980 0.9980 0.9980
1846.089847 0.9980 0.9950 0.9950 0.9950 0.9970
1850.437683 0.9970 0.9950 0.9950 0.9950 0.9940
1854.785519 0.9930 0.9930 0.9910 0.9910 0.9910
1859.133355 0.9910 0.9910 0.9900 0.9890 0.9890
1863.481190 0.9870 0.9870 0.9850 0.9850 0.9830
1867.829026 0.9830 0.9830 0.9830 0.9870 0.9870
1872.176862 0.9890 0.9890 0.9890 0.9890 0.9900
1876.524698 0.9910 0.9910 0.9900 0.9900 0.9900
1880.872534 0.9890 0.9890 0.9890 0.9870 0.9870
1885.220370 0.9870 0.9890 0.9900 0.9900 0.9900
1889.568205 0.9890 0.9890 0.9900 0.9900 0.9910
1893.916041 0.9930 0.9930 0.9940 0.9940 0.9950
1898.263877 0.9950 0.9950 0.9980 0.9980 1.0000
1902.611713 1.0000 1.0000 1.0010 1.0010 1.0010
1906.959549 1.0010 1.0010 1.0020 1.0020 1.0020
1911.307385 1.0020 1.0020 1.0020 1.0040 1.0020
1915.655221 1.0020 1.0020 1.0020 1.0020 1.0040
1920.003056 1.0040 1.0050 1.0050 1.0050 1.0050
1924.350892 1.0050 1.0040 1.0040 1.0040 1.0040
1928.698728 1.0040 1.0020 1.0020 1.0020 1.0020
1933.046564 1.0020 1.0020 1.0020 1.0020 1.0020
1937.394400 1.0020 1.0020 1.0020 1.0020 1.0020
1941.742236 1.0020 1.0020 1.0020 1.0020 1.0020
1946.090072 1.0020 1.0020 1.0020 1.0020 1.0020
1950.437907 1.0020 1.0020 1.0020 1.0020 1.0040
1954.785743 1.0040 1.0040 1.0040 1.0040 1.0040
1959.133579 1.0040 1.0040 1.0040 1.0040 1.0040
1963.481415 1.0020 1.0020 1.0020 1.0020 1.0020
1967.829251 1.0020 1.0040 1.0020 1.0020 1.0020
1972.177087 1.0020 1.0020 1.0010 1.0010 1.0010
1976.524923 1.0010 1.0010 1.0000 1.0000 1.0010
1980.872758 1.0010 1.0010 1.0010 1.0010 1.0000
1985.220594 1.0000 1.0000 1.0000 1.0000 1.0000
1989.568430 1.0000 0.9980 0.9980 0.9980 0.9980
1993.916266 0.9980 0.9980 0.9980 0.9980 1.0000
1998.264102 1.0010 1.0020 1.0020 1.0015 1.0010
2002.611938 1.0010 1.0010 1.0010 1.0010 1.0010
2006.959774 1.0010 1.0010 1.0010 1.0010 1.0010
2011.307609 1.0005 1.0000 1.0005 1.0010 1.0010
2015.655445 1.0010 1.0010 1.0010 1.0015 1.0020
2020.003281 1.0020 1.0020 1.0020 1.0020 1.0015
2024.351117 1.0010 1.0015 1.0020 1.0020 1.0020
2028.698953 1.0015 1.0010 1.0010 1.0010 1.0005
2033.046789 1.0000 1.0000 1.0000 1.0000 1.0000
2037.394625 1.0000 1.0000 1.0000 1.0000 1.0005
2041.742460 1.0010 1.0010 1.0010 1.0010 1.0010
2046.090296 1.0010 1.0010 1.0005 1.0000 1.0005
2050.438132 1.0010 1.0010 1.0010 1.0010 1.0010
2054.785968 1.0010 1.0010 1.0010 1.0010 1.0010
2059.133804 1.0010 1.0010 1.0010 1.0010 1.0010
2063.481640 1.0010 1.0010 1.0005 1.0000 1.0005
2067.829476 1.0010 1.0015 1.0020 1.0020 1.0020
2072.177311 1.0015 1.0010 1.0010 1.0010 1.0010
2076.525147 1.0010 1.0015 1.0020 1.0020 1.0020
2080.872983 1.0020 1.0020 1.0020 1.0020 1.0015
2085.220819 1.0010 1.0010 1.0010 1.0010 1.0010
2089.568655 1.0010 1.0010 1.0010 1.0010 1.0005
2093.916491 1.0000 1.0000 1.0000 1.0000 1.0000
2098.264326 1.0000 1.0000 1.0000 1.0000 1.0000
2102.612162 1.0000 1.0000 1.0000 1.0000 1.0000
2106.959998 1.0000 1.0000 1.0000 1.0000 1.0000
2111.307834 1.0000 1.0000 1.0000 1.0000 1.0000
2115.655670 1.0000 1.0000 1.0005 1.0010 1.0010
2120.003506 1.0010 1.0010 1.0010 1.0010 1.0010
2124.351342 1.0010 1.0010 1.0010 1.0010 1.0010
2128.699177 1.0010 1.0015 1.0020 1.0015 1.0010
2133.047013 1.0010 1.0010 1.0010 1.0010 1.0005
2137.394849 1.0000 1.0000 1.0000 1.0000 1.0000
2141.742685 1.0000 1.0000 0.9990 0.9980 0.9980
2146.090521 0.9980 0.9980 0.9980 0.9975 0.9970
2150.438357 0.9970 0.9970 0.9960 0.9950 0.9950
2154.786193 0.9950 0.9950 0.9950 0.9950 0.9950
2159.134028 0.9950 0.9950 0.9950 0.9950 0.9960
2163.481864 0.9970 0.9960 0.9950 0.9950 0.9950
2167.829700 0.9950 0.9950 0.9950 0.9950 0.9950
2172.177536 0.9950 0.9960 0.9970 0.9970 0.9970
2176.525372 0.9960 0.9950 0.9950 0.9950 0.9950
2180.873208 0.9950 0.9945 0.9940 0.9940 0.9940
2185.221044 0.9945 0.9950 0.9950 0.9950 0.9950
2189.568879 0.9950 0.9945 0.9940 0.9940 0.9940
2193.916715 0.9945 0.9950 0.9945 0.9940 0.9940
2198.264551 0.9940 0.9940 0.9940 0.9940 0.9940
2202.612387 0.9935 0.9930 0.9920 0.9910 0.9910
2206.960223 0.9910 0.9910 0.9910 0.9910 0.9910
2211.308059 0.9910 0.9910 0.9910 0.9910 0.9910
2215.655895 0.9910 0.9910 0.9910 0.9910 0.9910
2220.003730 0.9905 0.9900 0.9900 0.9900 0.9900
2224.351566 0.9900 0.9900 0.9900 0.9895 0.9890
2228.699402 0.9890 0.9890 0.9890 0.9890 0.9890
2233.047238 0.9890 0.9890 0.9890 0.9880 0.9870
2237.395074 0.9870 0.9870 0.9865 0.9860 0.9855
2241.742910 0.9850 0.9850 0.9850 0.9850 0.9850
2246.090746 0.9850 0.9850 0.9850 0.9850 0.9850
2250.438581 0.9850 0.9850 0.9850 0.9850 0.9850
2254.786417 0.9840 0.9830 0.9830 0.9830 0.9825
2259.134253 0.9820 0.9805 0.9790 0.9785 0.9780
2263.482089 0.9780 0.9780 0.9780 0.9780 0.9770
2267.829925 0.9760 0.9740 0.9720 0.9720 0.9720
2272.177761 0.9710 0.9700 0.9700 0.9700 0.9690
2276.525597 0.9680 0.9680 0.9680 0.9675 0.9670
2280.873432 0.9670 0.9670 0.9670 0.9670 0.9670
2285.221268 0.9670 0.9670 0.9670 0.9670 0.9670
2289.569104 0.9660 0.9650 0.9645 0.9640 0.9640
2293.916940 0.9640 0.9635 0.9630 0.9630 0.9630
2298.264776 0.9635 0.9640 0.9645 0.9650 0.9645
2302.612612 0.9640 0.9640 0.9640 0.9635 0.9630
2306.960447 0.9630 0.9630 0.9620 0.9610 0.9605
2311.308283 0.9600 0.9595 0.9590 0.9590 0.9590
2315.656119 0.9580 0.9570 0.9570 0.9570 0.9565
2320.003955 0.9560 0.9560 0.9560 0.9560 0.9560
2324.351791 0.9560 0.9560 0.9560 0.9560 0.9560
2328.699627 0.9560 0.9555 0.9550 0.9540 0.9530
2333.047463 0.9530 0.9530 0.9545 0.9560 0.9560
2337.395298 0.9560 0.9545 0.9530 0.9495 0.9460
2341.743134 0.9460 0.9460 0.9475 0.9490 0.9495
2346.090970 0.9500 0.9525 0.9550 0.9555 0.9560
2350.438806 0.9585 0.9610 0.9625 0.9640 0.9640
2354.786642 0.9640 0.9640 0.9640 0.9640 0.9640
2359.134478 0.9640 0.9640 0.9640 0.9640 0.9640
2363.482314 0.9640 0.9645 0.9650 0.9660 0.9670
2367.830149 0.9670 0.9670 0.9670 0.9670 0.9670
2372.177985 0.9670 0.9675 0.9680 0.9680 0.9680
2376.525821 0.9690 0.9700 0.9690 0.9680 0.9680
2380.873657 0.9680 0.9675 0.9670 0.9670 0.9670
2385.221493 0.9670 0.9670 0.9670 0.9670 0.9670
2389.569329 0.9670 0.9675 0.9680 0.9690 0.9700
2393.917165 0.9705 0.9710 0.9710 0.9710 0.9710
2398.265000 0.9710 0.9715 0.9720 0.9735 0.9750
2402.612836 0.9750 0.9750 0.9750 0.9750 0.9755
2406.960672 0.9760 0.9770 0.9780 0.9780 0.9780
2411.308508 0.9780 0.9780 0.9780 0.9780 0.9785
2415.656344 0.9790 0.9790 0.9790 0.9790 0.9790
2420.004180 0.9790 0.9790 0.9790 0.9790 0.9790
2424.352016 0.9790 0.9790 0.9790 0.9790 0.9790
2428.699851 0.9790 0.9790 0.9785 0.9780 0.9780
2433.047687 0.9780 0.9780 0.9780 0.9780 0.9780
2437.395523 0.9780 0.9780 0.9785 0.9790 0.9775
2441.743359 0.9760 0.9760 0.9760 0.9770 0.9780
2446.091195 0.9780 0.9780 0.9780 0.9780 0.9780
2450.439031 0.9780 0.9780 0.9780 0.9780 0.9780
2454.786867 0.9780 0.9780 0.9780 0.9780 0.9780
2459.134702 0.9780 0.9785 0.9790 0.9790 0.9790
2463.482538 0.9785 0.9780 0.9780 0.9780 0.9780
2467.830374 0.9780 0.9780 0.9780 0.9780 0.9780
2472.178210 0.9780 0.9780 0.9780 0.9780 0.9780
2476.526046 0.9780 0.9780 0.9780 0.9780 0.9780
2480.873882 0.9770 0.9760 0.9760 0.9760 0.9760
2485.221717 0.9760 0.9760 0.9760 0.9760 0.9760
2489.569553 0.9755 0.9750 0.9735 0.9720 0.9720
2493.917389 0.9720 0.9715 0.9710 0.9710 0.9710
2498.265225 0.9715 0.9720 0.9730 0.9740 0.9740
2502.613061 0.9740 0.9740 0.9740 0.9740 0.9740
2506.960897 0.9730 0.9720 0.9720 0.9720 0.9715
2511.308733 0.9710 0.9710 0.9710 0.9710 0.9710
2515.656568 0.9710 0.9710 0.9710 0.9710 0.9710
2520.004404 0.9710 0.9705 0.9700 0.9700 0.9700
2524.352240 0.9700 0.9700 0.9705 0.9710 0.9710
2528.700076 0.9710 0.9715 0.9720 0.9720 0.9720
2533.047912 0.9730 0.9740 0.9740 0.9740 0.9740
2537.395748 0.9740 0.9730 0.9720 0.9720 0.9720
2541.743584 0.9720 0.9720 0.9720 0.9720 0.9720
2546.091419 0.9720 0.9715 0.9710 0.9710 0.9710
2550.439255 0.9705 0.9700 0.9700 0.9700 0.9700
2554.787091 0.9700 0.9700 0.9700 0.9705 0.9710
2559.134927 0.9705 0.9700 0.9690 0.9680 0.9680
2563.482763 0.9680 0.9680 0.9680 0.9680 0.9680
2567.830599 0.9680 0.9680 0.9680 0.9680 0.9680
2572.178435 0.9680 0.9680 0.9680 0.9680 0.9680
2576.526270 0.9680 0.9680 0.9680 0.9680 0.9680
2580.874106 0.9680 0.9680 0.9680 0.9680 0.9680
2585.221942 0.9675 0.9670 0.9670 0.9670 0.9670
2589.569778 0.9670 0.9670 0.9670 0.9670 0.9670
2593.917614 0.9670 0.9670 0.9660 0.9650 0.9650
2598.265450 0.9650 0.9650 0.9650 0.9650 0.9650
2602.613286 0.9650 0.9650 0.9650 0.9650 0.9650
2606.961121 0.9650 0.9650 0.9650 0.9650 0.9650
2611.308957 0.9650 0.9650 0.9650 0.9650 0.9645
2615.656793 0.9640 0.9640 0.9640 0.9640 0.9640
2620.004629 0.9640 0.9640 0.9640 0.9640 0.9640
2624.352465 0.9640 0.9635 0.9630 0.9630 0.9630
2628.700301 0.9630 0.9630 0.9630 0.9630 0.9635
2633.048137 0.9640 0.9640 0.9640 0.9645 0.9650
2637.395972 0.9650 0.9650 0.9650 0.9650 0.9650
2641.743808 0.9650 0.9650 0.9650 0.9650 0.9650
2646.091644 0.9645 0.9640 0.9640 0.9640 0.9645
2650.439480 0.9650 0.9650 0.9650 0.9645 0.9640
2654.787316 0.9640 0.9640 0.9640 0.9640 0.9640
2659.135152 0.9640 0.9640 0.9640 0.9640 0.9640
2663.482988 0.9640 0.9640 0.9640 0.9640 0.9640
2667.830823 0.9640 0.9635 0.9630 0.9620 0.9610
2672.178659 0.9600 0.9590 0.9580 0.9570 0.9565
2676.526495 0.9560 0.9555 0.9550 0.9540 0.9530
2680.874331 0.9525 0.9520 0.9505 0.9490 0.9490
2685.222167 0.9490 0.9490 0.9490 0.9495 0.9500
2689.570003 0.9495 0.9490 0.9475 0.9460 0.9460
2693.917838 0.9460 0.9455 0.9450 0.9445 0.9440
2698.265674 0.9440 0.9440 0.9450 0.9460 0.9490
2702.613510 0.9520 0.9525 0.9530 0.9540 0.9550
2706.961346 0.9550 0.9550 0.9555 0.9560 0.9560
2711.309182 0.9560 0.9560 0.9560 0.9560 0.9560
2715.657018 0.9560 0.9560 0.9560 0.9560 0.9560
2720.004854 0.9560 0.9560 0.9560 0.9555 0.9550
2724.352689 0.9550 0.9550 0.9550 0.9550 0.9550
2728.700525 0.9550 0.9550 0.9550 0.9550 0.9550
2733.048361 0.9525 0.9500 0.9500 0.9500 0.9500
2737.396197 0.9500 0.9495 0.9490 0.9490 0.9490
2741.744033 0.9495 0.9500 0.9500 0.9500 0.9510
2746.091869 0.9520 0.9520 0.9520 0.9525 0.9530
2750.439705 0.9540 0.9550 0.9550 0.9550 0.9550
2754.787540 0.9550 0.9550 0.9550 0.9550 0.9550
2759.135376 0.9540 0.9530 0.9540 0.9550 0.9555
2763.483212 0.9560 0.9560 0.9560 0.9565 0.9570
2767.831048 0.9570 0.9570 0.9570 0.9570 0.9570
2772.178884 0.9570 0.9570 0.9570 0.9570 0.9570
2776.526720 0.9565 0.9560 0.9560 0.9560 0.9560
2780.874556 0.9560 0.9560 0.9560 0.9560 0.9560
2785.222391 0.9555 0.9550 0.9550 0.9550 0.9550
2789.570227 0.9550 0.9540 0.9530 0.9540 0.9550
2793.918063 0.9535 0.9520 0.9520 0.9520 0.9520
2798.265899 0.9520 0.9510 0.9500 0.9500 0.9500
2802.613735 0.9500 0.9500 0.9510 0.9520 0.9510
2806.961571 0.9500 0.9500 0.9500 0.9495 0.9490
2811.309407 0.9485 0.9480 0.9470 0.9460 0.9460
2815.657242 0.9460 0.9460 0.9460 0.9455 0.9450
2820.005078 0.9445 0.9440 0.9430 0.9420 0.9410
2824.352914 0.9400 0.9390 0.9380 0.9375 0.9370
2828.700750 0.9360 0.9350 0.9340 0.9330 0.9290
2833.048586 0.9250 0.9205 0.9160 0.9140 0.9120
2837.396422 0.9075 0.9030 0.9030 0.9030 0.9075
2841.744258 0.9120 0.9130 0.9140 0.9145 0.9150
2846.092093 0.9150 0.9150 0.9135 0.9120 0.9100
2850.439929 0.9080 0.9060 0.9040 0.9000 0.8960
2854.787765 0.8940 0.8920 0.8865 0.8810 0.8740
2859.135601 0.8670 0.8590 0.8510 0.8470 0.8430
2863.483437 0.8430 0.8430 0.8465 0.8500 0.8530
2867.831273 0.8560 0.8665 0.8771 0.8860 0.8950
2872.179109 0.8995 0.9040 0.9090 0.9140 0.9150
2876.526944 0.9160 0.9180 0.9200 0.9215 0.9230
2880.874780 0.9245 0.9260 0.9265 0.9270 0.9280
2885.222616 0.9290 0.9295 0.9300 0.9305 0.9310
2889.570452 0.9310 0.9310 0.9310 0.9310 0.9305
2893.918288 0.9300 0.9295 0.9290 0.9280 0.9270
2898.266124 0.9265 0.9260 0.9255 0.9250 0.9250
2902.613959 0.9250 0.9240 0.9230 0.9215 0.9200
2906.961795 0.9200 0.9200 0.9195 0.9190 0.9185
2911.309631 0.9180 0.9170 0.9160 0.9150 0.9140
2915.657467 0.9130 0.9120 0.9120 0.9120 0.9085
2920.005303 0.9050 0.8990 0.8930 0.8910 0.8890
2924.353139 0.8855 0.8820 0.8800 0.8780 0.8700
2928.700975 0.8620 0.8580 0.8540 0.8450 0.8360
2933.048810 0.8196 0.8031 0.7975 0.7921 0.7841
2937.396646 0.7761 0.7690 0.7620 0.7570 0.7520
2941.744482 0.7490 0.7460 0.7440 0.7420 0.7395
2946.092318 0.7370 0.7325 0.7280 0.7126 0.6971
2950.440154 0.6786 0.6601 0.6377 0.6152 0.5873
2954.787990 0.5593 0.5465 0.5340 0.5340 0.5340
2959.135826 0.5435 0.5530 0.5595 0.5660 0.5800
2963.483661 0.5940 0.5950 0.5960 0.6234 0.6508
2967.831497 0.6629 0.6749 0.6953 0.7158 0.7477
2972.179333 0.7796 0.7965 0.8130 0.8185 0.8240
2976.527169 0.8295 0.8350 0.8390 0.8430 0.8470
2980.875005 0.8510 0.8530 0.8550 0.8555 0.8560
2985.222841 0.8555 0.8550 0.8550 0.8550 0.8525
2989.570677 0.8500 0.8465 0.8430 0.8400 0.8370
2993.918512 0.8345 0.8320 0.8300 0.8280 0.8280
2998.266348 0.8280 0.8300 0.8320 0.8340 0.8360
3002.614184 0.8400 0.8440 0.8470 0.8500 0.8520
3006.962020 0.8540 0.8565 0.8590 0.8625 0.8660
3011.309856 0.8675 0.8690 0.8695 0.8700 0.8700
3015.657692 0.8700 0.8695 0.8690 0.8690 0.8690
3020.005528 0.8695 0.8700 0.8705 0.8710 0.8710
3024.353363 0.8710 0.8720 0.8730 0.8730 0.8730
3028.701199 0.8720 0.8710 0.8705 0.8700 0.8675
3033.049035 0.8650 0.8620 0.8590 0.8565 0.8540
3037.396871 0.8520 0.8500 0.8411 0.8321 0.8172
3041.744707 0.8022 0.7890 0.7760 0.7760 0.7760
3046.092543 0.7855 0.7950 0.8010 0.8070 0.8115
3050.440379 0.8160 0.8285 0.8410 0.8569 0.8729
3054.788214 0.8755 0.8780 0.8844 0.8909 0.8955
3059.136050 0.9000 0.9060 0.9120 0.9135 0.9150
3063.483886 0.9175 0.9200 0.9210 0.9220 0.9235
3067.831722 0.9250 0.9250 0.9250 0.9270 0.9290
3072.179558 0.9300 0.9310 0.9325 0.9340 0.9345
3076.527394 0.9350 0.9350 0.9350 0.9350 0.9350
3080.875229 0.9350 0.9350 0.9350 0.9350 0.9350
3085.223065 0.9350 0.9360 0.9370 0.9375 0.9380
3089.570901 0.9395 0.9410 0.9410 0.9410 0.9410
3093.918737 0.9410 0.9415 0.9420 0.9420 0.9420
3098.266573 0.9420 0.9420 0.9430 0.9440 0.9445
3102.614409 0.9450 0.9450 0.9450 0.9450 0.9450
3106.962245 0.9450 0.9450 0.9450 0.9450 0.9455
3111.310080 0.9460 0.9460 0.9460 0.9460 0.9460
3115.657916 0.9460 0.9460 0.9470 0.9480 0.9480
3120.005752 0.9480 0.9480 0.9480 0.9480 0.9480
3124.353588 0.9480 0.9480 0.9480 0.9480 0.9480
3128.701424 0.9480 0.9480 0.9480 0.9480 0.9480
3133.049260 0.9480 0.9480 0.9485 0.9490 0.9490
3137.397096 0.9490 0.9490 0.9490 0.9490 0.9490
3141.744931 0.9490 0.9490 0.9495 0.9500 0.9495
3146.092767 0.9490 0.9490 0.9490 0.9490 0.9490
3150.440603 0.9495 0.9500 0.9500 0.9500 0.9500
3154.788439 0.9500 0.9500 0.9500 0.9510 0.9520
3159.136275 0.9520 0.9520 0.9525 0.9530 0.9540
3163.484111 0.9550 0.9550 0.9550 0.9550 0.9550
3167.831947 0.9550 0.9550 0.9550 0.9550 0.9550
3172.179782 0.9550 0.9550 0.9550 0.9550 0.9550
3176.527618 0.9555 0.9560 0.9560 0.9560 0.9565
3180.875454 0.9570 0.9570 0.9570 0.9570 0.9570
3185.223290 0.9570 0.9570 0.9570 0.9570 0.9580
3189.571126 0.9590 0.9590 0.9590 0.9595 0.9600
3193.918962 0.9605 0.9610 0.9605 0.9600 0.9600
3198.266798 0.9600 0.9585 0.9570 0.9570 0.9570
3202.614633 0.9570 0.9570 0.9585 0.9600 0.9600
3206.962469 0.9600 0.9605 0.9610 0.9605 0.9600
3211.310305 0.9600 0.9600 0.9595 0.9590 0.9590
3215.658141 0.9590 0.9590 0.9590 0.9580 0.9570
3220.005977 0.9580 0.9590 0.9600 0.9610 0.9620
3224.353813 0.9630 0.9630 0.9630 0.9630 0.9630
3228.701649 0.9630 0.9630 0.9630 0.9630 0.9630
3233.049484 0.9630 0.9630 0.9630 0.9630 0.9630
3237.397320 0.9630 0.9630 0.9630 0.9630 0.9635
3241.745156 0.9640 0.9640 0.9640 0.9640 0.9640
3246.092992 0.9640 0.9640 0.9640 0.9640 0.9640
3250.440828 0.9640 0.9645 0.9650 0.9650 0.9650
3254.788664 0.9650 0.9650 0.9650 0.9650 0.9650
3259.136500 0.9650 0.9650 0.9650 0.9650 0.9650
3263.484335 0.9650 0.9650 0.9650 0.9650 0.9660
3267.832171 0.9670 0.9670 0.9670 0.9660 0.9650
3272.180007 0.9650 0.9650 0.9660 0.9670 0.9670
3276.527843 0.9670 0.9670 0.9670 0.9670 0.9670
3280.875679 0.9670 0.9670 0.9670 0.9670 0.9670
3285.223515 0.9670 0.9670 0.9670 0.9670 0.9670
3289.571350 0.9675 0.9680 0.9680 0.9680 0.9680
3293.919186 0.9680 0.9680 0.9680 0.9680 0.9680
3298.267022 0.9680 0.9680 0.9680 0.9680 0.9680
3302.614858 0.9680 0.9680 0.9680 0.9690 0.9700
3306.962694 0.9700 0.9700 0.9700 0.9700 0.9700
3311.310530 0.9700 0.9700 0.9700 0.9700 0.9700
3315.658366 0.9700 0.9700 0.9700 0.9700 0.9700
3320.006201 0.9700 0.9700 0.9700 0.9700 0.9700
3324.354037 0.9700 0.9700 0.9705 0.9710 0.9710
3328.701873 0.9710 0.9705 0.9700 0.9700 0.9700
3333.049709 0.9705 0.9710 0.9705 0.9700 0.9700
3337.397545 0.9700 0.9705 0.9710 0.9710 0.9710
3341.745381 0.9715 0.9720 0.9720 0.9720 0.9730
3346.093217 0.9740 0.9740 0.9740 0.9745 0.9750
3350.441052 0.9750 0.9750 0.9730 0.9710 0.9710
3354.788888 0.9710 0.9710 0.9710 0.9715 0.9720
3359.136724 0.9720 0.9720 0.9720 0.9720 0.9720
3363.484560 0.9720 0.9720 0.9720 0.9720 0.9720
3367.832396 0.9720 0.9720 0.9720 0.9720 0.9720
3372.180232 0.9720 0.9720 0.9720 0.9720 0.9720
3376.528068 0.9730 0.9740 0.9745 0.9750 0.9750
3380.875903 0.9750 0.9745 0.9740 0.9740 0.9740
3385.223739 0.9745 0.9750 0.9750 0.9750 0.9750
3389.571575 0.9750 0.9750 0.9750 0.9765 0.9780
3393.919411 0.9780 0.9780 0.9765 0.9750 0.9750
3398.267247 0.9750 0.9745 0.9740 0.9740 0.9740
3402.615083 0.9740 0.9740 0.9740 0.9740 0.9740
3406.962919 0.9740 0.9740 0.9740 0.9740 0.9740
3411.310754 0.9740 0.9740 0.9740 0.9740 0.9740
3415.658590 0.9740 0.9740 0.9740 0.9740 0.9740
3420.006426 0.9740 0.9740 0.9740 0.9740 0.9745
3424.354262 0.9750 0.9750 0.9750 0.9750 0.9750
3428.702098 0.9755 0.9760 0.9760 0.9760 0.9750
3433.049934 0.9740 0.9740 0.9740 0.9740 0.9740
3437.397770 0.9740 0.9740 0.9730 0.9720 0.9715
3441.745605 0.9710 0.9710 0.9710 0.9710 0.9710
3446.093441 0.9715 0.9720 0.9720 0.9720 0.9720
3450.441277 0.9720 0.9720 0.9720 0.9720 0.9720
3454.789113 0.9720 0.9720 0.9720 0.9720 0.9720
3459.136949 0.9720 0.9720 0.9720 0.9720 0.9720
3463.484785 0.9715 0.9710 0.9710 0.9710 0.9710
3467.832621 0.9710 0.9710 0.9710 0.9710 0.9710
3472.180456 0.9710 0.9710 0.9710 0.9710 0.9710
3476.528292 0.9710 0.9710 0.9710 0.9715 0.9720
3480.876128 0.9720 0.9720 0.9730 0.9740 0.9740
3485.223964 0.9740 0.9740 0.9740 0.9730 0.9720
3489.571800 0.9720 0.9720 0.9715 0.9710 0.9710
3493.919636 0.9710 0.9710 0.9710 0.9710 0.9710
3498.267471 0.9710 0.9710 0.9710 0.9710 0.9710
3502.615307 0.9710 0.9710 0.9710 0.9715 0.9720
3506.963143 0.9720 0.9720 0.9720 0.9720 0.9715
3511.310979 0.9710 0.9710 0.9710 0.9710 0.9710
3515.658815 0.9705 0.9700 0.9700 0.9700 0.9700
3520.006651 0.9700 0.9700 0.9700 0.9700 0.9700
3524.354487 0.9700 0.9700 0.9705 0.9710 0.9710
3528.702322 0.9710 0.9710 0.9710 0.9705 0.9700
3533.050158 0.9700 0.9700 0.9705 0.9710 0.9710
3537.397994 0.9710 0.9710 0.9710 0.9710 0.9710
3541.745830 0.9710 0.9710 0.9710 0.9710 0.9710
3546.093666 0.9710 0.9710 0.9710 0.9710 0.9710
3550.441502 0.9710 0.9710 0.9715 0.9720 0.9720
3554.789338 0.9720 0.9720 0.9720 0.9720 0.9720
3559.137173 0.9715 0.9710 0.9705 0.9700 0.9690
3563.485009 0.9680 0.9680 0.9680 0.9690 0.9700
3567.832845 0.9700 0.9700 0.9705 0.9710 0.9710
3572.180681 0.9710 0.9705 0.9700 0.9700 0.9700
3576.528517 0.9700 0.9700 0.9690 0.9680 0.9680
3580.876353 0.9680 0.9675 0.9670 0.9670 0.9670
3585.224189 0.9675 0.9680 0.9680 0.9680 0.9690
3589.572024 0.9700 0.9705 0.9710 0.9710 0.9710
3593.919860 0.9715 0.9720 0.9720 0.9720 0.9720
3598.267696 0.9720 0.9720 0.9720 0.9715 0.9710
3602.615532 0.9710 0.9710 0.9695 0.9680 0.9680
3606.963368 0.9680 0.9680 0.9680 0.9690 0.9700
3611.311204 0.9700 0.9700 0.9700 0.9700 0.9700
3615.659040 0.9700 0.9700 0.9700 0.9700 0.9700
3620.006875 0.9700 0.9700 0.9690 0.9680 0.9675
3624.354711 0.9670 0.9655 0.9640 0.9635 0.9630
3628.702547 0.9640 0.9650 0.9665 0.9680 0.9680
3633.050383 0.9680 0.9680 0.9680 0.9680 0.9680
3637.398219 0.9680 0.9680 0.9690 0.9700 0.9700
3641.746055 0.9700 0.9675 0.9650 0.9640 0.9630
3646.093891 0.9610 0.9590 0.9600 0.9610 0.9625
3650.441726 0.9640 0.9655 0.9670 0.9675 0.9680
3654.789562 0.9680 0.9680 0.9690 0.9700 0.9705
3659.137398 0.9710 0.9710 0.9710 0.9705 0.9700
3663.485234 0.9690 0.9680 0.9675 0.9670 0.9660
3667.833070 0.9650 0.9650 0.9650 0.9645 0.9640
3672.180906 0.9635 0.9630 0.9630 0.9630 0.9640
3676.528741 0.9650 0.9665 0.9680 0.9690 0.9700
3680.876577 0.9700 0.9700 0.9685 0.9670 0.9655
3685.224413 0.9640 0.9615 0.9590 0.9590 0.9590
3689.572249 0.9615 0.9640 0.9655 0.9670 0.9675
3693.920085 0.9680 0.9680 0.9680 0.9680 0.9680
3698.267921 0.9680 0.9680 0.9680 0.9680 0.9690
3702.615757 0.9700 0.9700 0.9700 0.9690 0.9680
3706.963592 0.9675 0.9670 0.9660 0.9650 0.9665
3711.311428 0.9680 0.9690 0.9700 0.9705 0.9710
3715.659264 0.9710 0.9710 0.9705 0.9700 0.9700
3720.007100 0.9700 0.9690 0.9680 0.9680 0.9680
3724.354936 0.9680 0.9680 0.9675 0.9670 0.9670
3728.702772 0.9670 0.9655 0.9640 0.9655 0.9670
3733.050608 0.9670 0.9670 0.9675 0.9680 0.9680
3737.398443 0.9680 0.9665 0.9650 0.9640 0.9630
3741.746279 0.9615 0.9600 0.9585 0.9570 0.9580
3746.094115 0.9590 0.9610 0.9630 0.9635 0.9640
3750.441951 0.9655 0.9670 0.9675 0.9680 0.9690
3754.789787 0.9700 0.9705 0.9710 0.9715 0.9720
3759.137623 0.9720 0.9720 0.9730 0.9740 0.9740
3763.485459 0.9740 0.9740 0.9740 0.9740 0.9740
3767.833294 0.9740 0.9740 0.9740 0.9740 0.9745
3772.181130 0.9750 0.9765 0.9780 0.9780 0.9780
3776.528966 0.9780 0.9780 0.9770 0.9760 0.9755
3780.876802 0.9750 0.9750 0.9750 0.9750 0.9750
3785.224638 0.9745 0.9740 0.9740 0.9740 0.9745
3789.572474 0.9750 0.9745 0.9740 0.9740 0.9740
3793.920310 0.9740 0.9740 0.9740
##END=
