##TITLE=ETHYLENE GLYCOL MONOVINYL ETHER
##JCAMP-DX=4.24
##DATA TYPE=INFRARED SPECTRUM
##CLASS=COBLENTZ
##ORIGIN=DOW CHEMICAL COMPANY
##OWNER=COBLENTZ SOCIETY
Collection (C) 2018 copyright by the U.S. Secretary of Commerce
on behalf of the United States of America. All rights reserved.
##DATE=Not specified, most likely prior to 1970
##NAMES=2-(vinyloxy)ethanol
##CAS REGISTRY NO=764-48-7
##MOLFORM=C4 H8 O2
##SOURCE REFERENCE=COBLENTZ NO. 1590
##$NIST SOURCE=COBLENTZ
##$NIST IMAGE=cob1590
##SPECTROMETER/DATA SYSTEM=Not specified, most likely a prism, grating, or hybrid spectrometer.
##STATE=SOLUTION UNDER NITROGEN (10% CCl4 FOR 5000-1330, 10% CS2 FOR 1330-625 CM^-^1)
##PATH LENGTH=0.0123 CM, 0.0120 CM
$$SPECTRAL CONTAMINATION DUE TO CCl4 AROUND 1550 CM^-^1
##SAMPLING PROCEDURE=TRANSMISSION
##RESOLUTION=4
##DATA PROCESSING=DIGITIZED BY NIST FROM HARD COPY
##XUNITS=MICROMETERS
##YUNITS=TRANSMITTANCE
##XFACTOR=1.000000
##YFACTOR=1
##DELTAX=000.006863
##FIRSTX=2.041
##LASTX=15.8487
##FIRSTY=0.883
##MAXX=15.8487
##MINX=2.041
##MAXY=0.902
##MINY=0.006
##NPOINTS=2013
##XYDATA=(X++(Y..Y))
2.041000 0.8830 0.8830 0.8830 0.8830 0.8830
2.075331 0.8830 0.8830 0.8830 0.8830 0.8830
2.110000 0.8830 0.8830 0.8820 0.8800 0.8780
2.144331 0.8750 0.8730 0.8730 0.8700 0.8700
2.178000 0.8700 0.8680 0.8660 0.8640 0.8630
2.212331 0.8590 0.8560 0.8520 0.8520 0.8510
2.247000 0.8510 0.8510 0.8520 0.8520 0.8520
2.281331 0.8590 0.8610 0.8630 0.8630 0.8610
2.316000 0.8610 0.8610 0.8610 0.8610 0.8610
2.350331 0.8610 0.8610 0.8660 0.8700 0.8700
2.384000 0.8700 0.8680 0.8640 0.8610 0.8610
2.418331 0.8590 0.8580 0.8560 0.8560 0.8560
2.453000 0.8580 0.8630 0.8660 0.8710 0.8710
2.487331 0.8750 0.8760 0.8800 0.8830 0.8870
2.522000 0.8870 0.8820 0.8820 0.8820 0.8820
2.556331 0.8830 0.8900 0.8900 0.8900 0.8870
2.590000 0.8830 0.8780 0.8730 0.8730 0.8730
2.624331 0.8780 0.8820 0.8820 0.8800 0.8750
2.659000 0.8700 0.8630 0.8510 0.8390 0.8220
2.693331 0.8010 0.7760 0.7360 0.7050 0.6760
2.727000 0.6470 0.6010 0.5650 0.5400 0.5210
2.761331 0.5070 0.4950 0.4850 0.4750 0.4440
2.796000 0.4150 0.3860 0.3570 0.3330 0.3230
2.830331 0.3110 0.2900 0.2750 0.2610 0.2520
2.865000 0.2410 0.2340 0.2290 0.2230 0.2230
2.899331 0.2220 0.2200 0.2180 0.2180 0.2200
2.933000 0.2270 0.2340 0.2390 0.2460 0.2540
2.967331 0.2630 0.2710 0.2830 0.2950 0.3090
3.002000 0.3260 0.3640 0.3880 0.4130 0.4410
3.036331 0.4590 0.4760 0.4990 0.5110 0.5360
3.071000 0.5520 0.5670 0.5840 0.6000 0.6150
3.105331 0.6250 0.6350 0.6490 0.6560 0.6780
3.139000 0.6800 0.6800 0.6700 0.6660 0.6610
3.173331 0.6580 0.6580 0.6580 0.6610 0.7160
3.208000 0.7160 0.7090 0.7050 0.7020 0.7000
3.242331 0.7020 0.7070 0.7110 0.7160 0.7230
3.276000 0.7260 0.7260 0.7230 0.7040 0.6700
3.310331 0.6470 0.6250 0.5810 0.4950 0.4340
3.345000 0.3550 0.3290 0.3020 0.1880 0.1790
3.379331 0.1790 0.1820 0.2640 0.2850 0.3500
3.414000 0.3480 0.3450 0.3400 0.3380 0.3400
3.448331 0.3770 0.4350 0.5140 0.5740 0.6060
3.482000 0.6340 0.6520 0.6640 0.6900 0.6990
3.516331 0.7140 0.7280 0.7400 0.7500 0.7550
3.551000 0.7650 0.7760 0.7810 0.7840 0.7880
3.585331 0.7890 0.7930 0.7940 0.7960 0.7960
3.620000 0.7980 0.7980 0.7980 0.8010 0.8060
3.654331 0.8110 0.8150 0.8200 0.8220 0.8300
3.688000 0.8340 0.8370 0.8390 0.8420 0.8460
3.722331 0.8490 0.8490 0.8510 0.8510 0.8520
3.757000 0.8520 0.8520 0.8510 0.8510 0.8490
3.791331 0.8490 0.8470 0.8470 0.8470 0.8470
3.825000 0.8470 0.8470 0.8490 0.8520 0.8590
3.859331 0.8630 0.8630 0.8610 0.8590 0.8590
3.894000 0.8590 0.8590 0.8580 0.8580 0.8580
3.928331 0.8580 0.8580 0.8590 0.8610 0.8630
3.963000 0.8660 0.8680 0.8710 0.8750 0.8750
3.997331 0.8760 0.8780 0.8780 0.8850 0.8850
4.031000 0.8850 0.8850 0.8830 0.8800 0.8780
4.065331 0.8800 0.8820 0.8850 0.8830 0.8820
4.100000 0.8800 0.8800 0.8800 0.8800 0.8800
4.134331 0.8820 0.8870 0.8880 0.8900 0.8900
4.169000 0.8920 0.8920 0.8920 0.8920 0.8920
4.203331 0.8920 0.8900 0.8880 0.8880 0.8880
4.237000 0.8850 0.8850 0.8830 0.8820 0.8800
4.271331 0.8780 0.8710 0.8710 0.8680 0.8680
4.306000 0.8680 0.8700 0.8700 0.8730 0.8780
4.340331 0.8820 0.8850 0.8880 0.8880 0.8920
4.375000 0.8920 0.8940 0.8940 0.8970 0.8970
4.409331 0.8970 0.8950 0.8940 0.8900 0.8900
4.443000 0.8900 0.8940 0.8970 0.8990 0.8990
4.477331 0.8990 0.8950 0.8940 0.8900 0.8900
4.512000 0.8900 0.8900 0.8880 0.8850 0.8820
4.546331 0.8800 0.8760 0.8750 0.8730 0.8730
4.580000 0.8730 0.8710 0.8700 0.8700 0.8700
4.614331 0.8700 0.8700 0.8710 0.8730 0.8760
4.649000 0.8800 0.8820 0.8830 0.8850 0.8850
4.683331 0.8880 0.8900 0.8950 0.8970 0.8990
4.718000 0.8990 0.8990 0.8990 0.8970 0.8970
4.752331 0.8970 0.8970 0.8970 0.8990 0.9000
4.786000 0.9000 0.9020 0.9020 0.9020 0.9000
4.820331 0.9000 0.9000 0.8990 0.8970 0.8940
4.855000 0.8920 0.8880 0.8820 0.8800 0.8750
4.889331 0.8700 0.8700 0.8680 0.8660 0.8660
4.924000 0.8640 0.8640 0.8660 0.8700 0.8710
4.958331 0.8820 0.8820 0.8800 0.8800 0.8730
4.992000 0.8730 0.8750 0.8850 0.8880 0.8880
5.026331 0.8870 0.8820 0.8800 0.8760 0.8730
5.061000 0.8730 0.8710 0.8710 0.8710 0.8750
5.095331 0.8780 0.8820 0.8830 0.8820 0.8820
5.129000 0.8800 0.8800 0.8780 0.8780 0.8730
5.163331 0.8710 0.8680 0.8640 0.8610 0.8590
5.198000 0.8560 0.8580 0.8700 0.8730 0.8850
5.232331 0.8880 0.8880 0.8850 0.8830 0.8800
5.267000 0.8760 0.8750 0.8750 0.8750 0.8760
5.301331 0.8760 0.8780 0.8800 0.8830 0.8830
5.335000 0.8830 0.8850 0.8850 0.8850 0.8850
5.369331 0.8870 0.8870 0.8880 0.8900 0.8920
5.404000 0.8940 0.8940 0.8950 0.8990 0.9000
5.438331 0.9000 0.8990 0.8950 0.8900 0.8870
5.473000 0.8820 0.8800 0.8800 0.8780 0.8780
5.507331 0.8780 0.8780 0.8760 0.8760 0.8760
5.541000 0.8780 0.8800 0.8820 0.8820 0.8820
5.575331 0.8820 0.8820 0.8820 0.8820 0.8820
5.610000 0.8830 0.8850 0.8870 0.8870 0.8880
5.644331 0.8900 0.8900 0.8880 0.8870 0.8870
5.678000 0.8870 0.8870 0.8870 0.8870 0.8850
5.712331 0.8830 0.8820 0.8760 0.8750 0.8710
5.747000 0.8710 0.8710 0.8710 0.8710 0.8710
5.781331 0.8710 0.8710 0.8700 0.8700 0.8680
5.816000 0.8680 0.8660 0.8610 0.8580 0.8510
5.850331 0.8470 0.8390 0.8320 0.8180 0.8110
5.884000 0.8030 0.7930 0.7770 0.7580 0.7380
5.918331 0.7120 0.6850 0.6710 0.6580 0.6270
5.953000 0.5960 0.5330 0.4920 0.4630 0.4270
5.987331 0.3910 0.3580 0.3430 0.3280 0.3070
6.022000 0.2940 0.2850 0.2590 0.2320 0.1940
6.056331 0.1700 0.1450 0.1240 0.1050 0.0990
6.090000 0.0900 0.0830 0.0820 0.0800 0.0780
6.124331 0.0730 0.0680 0.0640 0.0560 0.0440
6.159000 0.0420 0.0420 0.0420 0.0470 0.0820
6.193331 0.1700 0.2370 0.2640 0.2850 0.2990
6.227000 0.3230 0.3640 0.3810 0.3980 0.4110
6.261331 0.4150 0.4250 0.4290 0.4320 0.4440
6.296000 0.4540 0.4640 0.4760 0.4850 0.4950
6.330331 0.5000 0.5020 0.5040 0.5040 0.5000
6.365000 0.4990 0.4970 0.4940 0.4870 0.4780
6.399331 0.4660 0.4540 0.4390 0.4340 0.4300
6.433000 0.4290 0.4300 0.4320 0.4350 0.4460
6.467331 0.4640 0.4800 0.4940 0.5070 0.5140
6.502000 0.5210 0.5280 0.5350 0.5380 0.5430
6.536331 0.5470 0.5520 0.5550 0.5620 0.5690
6.571000 0.5770 0.5840 0.5890 0.5940 0.6050
6.605331 0.6180 0.6370 0.6490 0.6540 0.6750
6.639000 0.6850 0.6900 0.6940 0.6970 0.6970
6.673331 0.6950 0.6880 0.6800 0.6730 0.6700
6.708000 0.6640 0.6590 0.6520 0.6470 0.6420
6.742331 0.6390 0.6340 0.6270 0.6170 0.6010
6.776000 0.5810 0.5570 0.5290 0.4970 0.4590
6.810331 0.4180 0.4110 0.3940 0.3890 0.3910
6.845000 0.4080 0.4340 0.4640 0.5230 0.5450
6.879331 0.5650 0.5790 0.5880 0.5890 0.5910
6.914000 0.5930 0.5940 0.5910 0.5880 0.5840
6.948331 0.5760 0.5690 0.5640 0.5580 0.5550
6.982000 0.5520 0.5480 0.5380 0.5230 0.4950
7.016331 0.4820 0.4640 0.4540 0.4340 0.4200
7.051000 0.4100 0.4000 0.3980 0.3940 0.3890
7.085331 0.3880 0.3880 0.3880 0.3890 0.3890
7.120000 0.3910 0.3930 0.4000 0.4030 0.4150
7.154331 0.4250 0.4340 0.4440 0.4540 0.4630
7.188000 0.4750 0.4870 0.5000 0.5070 0.5110
7.222331 0.5120 0.5110 0.5070 0.5000 0.4880
7.257000 0.4680 0.4490 0.4180 0.3930 0.3640
7.291331 0.3450 0.3360 0.3350 0.3310 0.3380
7.325000 0.3700 0.4270 0.4640 0.4920 0.5170
7.359331 0.5310 0.5410 0.5470 0.5470 0.5450
7.394000 0.5400 0.5360 0.5330 0.5290 0.5260
7.428331 0.5190 0.5120 0.5020 0.4880 0.4730
7.463000 0.4510 0.4250 0.3840 0.3570 0.3330
7.497331 0.3110 0.2880 0.2350 0.1810 0.1380
7.531000 0.1140 0.0750 0.0730 0.0750 0.1190
7.565331 0.1410 0.1690 0.1980 0.2320 0.3090
7.600000 0.3240 0.3640 0.3910 0.4470 0.4970
7.634331 0.5170 0.5330 0.5520 0.5640 0.5690
7.669000 0.5760 0.5770 0.5770 0.5790 0.5770
7.703331 0.5770 0.5770 0.5720 0.5690 0.5650
7.737000 0.5600 0.5570 0.5530 0.5480 0.5470
7.771331 0.5430 0.5400 0.5380 0.5360 0.5350
7.806000 0.5350 0.5330 0.5330 0.5310 0.5310
7.840331 0.5310 0.5330 0.5330 0.5330 0.5330
7.875000 0.5330 0.5330 0.5290 0.5280 0.5240
7.909331 0.5190 0.5170 0.5120 0.5070 0.5020
7.943000 0.4990 0.4950 0.4880 0.4820 0.4750
7.977331 0.4680 0.4610 0.4560 0.4490 0.4420
8.012000 0.4350 0.4300 0.4270 0.4220 0.4180
8.046331 0.4170 0.4130 0.4110 0.4080 0.4030
8.080000 0.3980 0.3910 0.3810 0.3690 0.3520
8.114331 0.3410 0.3310 0.3190 0.3040 0.2820
8.149000 0.2640 0.2490 0.2300 0.2110 0.2010
8.183331 0.1960 0.1890 0.1520 0.1240 0.0950
8.218000 0.0850 0.0730 0.0540 0.0470 0.0390
8.252331 0.0320 0.0290 0.0230 0.0200 0.0150
8.286000 0.0110 0.0100 0.0080 0.0060 0.0060
8.320331 0.0060 0.0060 0.0060 0.0060 0.0060
8.355000 0.0080 0.0100 0.0110 0.0150 0.0220
8.389331 0.0290 0.0390 0.0460 0.0560 0.0640
8.424000 0.0700 0.0760 0.0830 0.0880 0.0940
8.458331 0.1000 0.1050 0.1110 0.1160 0.1230
8.492000 0.1290 0.1360 0.1430 0.1520 0.1600
8.526331 0.1690 0.1770 0.1860 0.1980 0.2080
8.561000 0.2180 0.2290 0.2390 0.2470 0.2540
8.595331 0.2610 0.2710 0.2830 0.2970 0.3110
8.629000 0.3240 0.3500 0.3690 0.3890 0.4080
8.663331 0.4230 0.4420 0.4520 0.4660 0.4780
8.698000 0.4920 0.5040 0.5170 0.5290 0.5330
8.732331 0.5400 0.5480 0.5530 0.5600 0.5650
8.767000 0.5690 0.5700 0.5770 0.5770 0.5810
8.801331 0.5860 0.5890 0.5910 0.5930 0.5940
8.835000 0.5960 0.5960 0.5960 0.5960 0.5960
8.869331 0.5940 0.5890 0.5880 0.5820 0.5770
8.904000 0.5720 0.5670 0.5570 0.5480 0.5410
8.938331 0.5330 0.5240 0.5120 0.5000 0.4880
8.973000 0.4730 0.4610 0.4390 0.4150 0.3960
9.007331 0.3650 0.3480 0.3400 0.3290 0.3110
9.041000 0.2880 0.2660 0.2420 0.2030 0.1840
9.075331 0.1690 0.1530 0.1410 0.1280 0.1210
9.110000 0.1140 0.1040 0.1000 0.0950 0.0900
9.144331 0.0880 0.0850 0.0820 0.0800 0.0760
9.178000 0.0730 0.0700 0.0630 0.0590 0.0540
9.212331 0.0510 0.0470 0.0460 0.0410 0.0390
9.247000 0.0370 0.0370 0.0370 0.0370 0.0370
9.281331 0.0370 0.0370 0.0370 0.0370 0.0370
9.316000 0.0390 0.0410 0.0440 0.0470 0.0470
9.350331 0.0510 0.0580 0.0630 0.0700 0.0730
9.384000 0.0730 0.0780 0.0850 0.0900 0.0920
9.418331 0.0940 0.0940 0.0950 0.0950 0.0950
9.453000 0.0970 0.0990 0.1000 0.1020 0.1070
9.487331 0.1110 0.1140 0.1280 0.1400 0.1520
9.522000 0.1650 0.1760 0.1880 0.2000 0.2100
9.556331 0.2180 0.2290 0.2350 0.2420 0.2490
9.590000 0.2520 0.2560 0.2640 0.2700 0.2710
9.624331 0.2730 0.2730 0.2730 0.2730 0.2710
9.659000 0.2710 0.2700 0.2700 0.2680 0.2680
9.693331 0.2680 0.2700 0.2710 0.2750 0.2760
9.727000 0.2760 0.2760 0.2780 0.2800 0.2800
9.761331 0.2800 0.2800 0.2800 0.2800 0.2800
9.796000 0.2780 0.2760 0.2750 0.2710 0.2680
9.830331 0.2680 0.2680 0.2680 0.2700 0.2820
9.865000 0.2920 0.3050 0.3120 0.3430 0.3520
9.899331 0.3570 0.3600 0.3620 0.3640 0.3640
9.933000 0.3650 0.3650 0.3650 0.3650 0.3650
9.967331 0.3690 0.3770 0.3860 0.3960 0.4050
10.002000 0.4130 0.4250 0.4370 0.4490 0.4540
10.036331 0.4580 0.4590 0.4610 0.4610 0.4590
10.071000 0.4520 0.4470 0.4410 0.4340 0.4220
10.105331 0.4030 0.3840 0.3620 0.3400 0.3280
10.139000 0.3140 0.2850 0.2540 0.2180 0.1770
10.173331 0.1690 0.1530 0.1360 0.1170 0.0990
10.208000 0.0820 0.0660 0.0540 0.0510 0.0460
10.242331 0.0490 0.0640 0.0830 0.0970 0.1160
10.276000 0.1380 0.1600 0.1810 0.1960 0.2050
10.310331 0.2130 0.2180 0.2200 0.2200 0.2180
10.345000 0.2050 0.1960 0.1820 0.1670 0.1550
10.379331 0.1400 0.1330 0.1160 0.1050 0.0940
10.414000 0.0900 0.0870 0.0870 0.0880 0.1070
10.448331 0.1310 0.1380 0.1840 0.2000 0.2200
10.482000 0.2410 0.2610 0.2800 0.2970 0.3070
10.516331 0.3170 0.3240 0.3290 0.3310 0.3330
10.551000 0.3330 0.3310 0.3290 0.3240 0.3190
10.585331 0.3140 0.3050 0.3040 0.3050 0.3160
10.620000 0.3170 0.3240 0.3450 0.3580 0.3760
10.654331 0.3930 0.4100 0.4290 0.4460 0.4610
10.688000 0.4760 0.4900 0.4990 0.5090 0.5170
10.722331 0.5260 0.5330 0.5400 0.5470 0.5520
10.757000 0.5580 0.5650 0.5720 0.5770 0.5860
10.791331 0.5930 0.5980 0.6050 0.6100 0.6170
10.825000 0.6220 0.6290 0.6340 0.6410 0.6440
10.859331 0.6490 0.6510 0.6520 0.6540 0.6560
10.894000 0.6580 0.6580 0.6610 0.6630 0.6640
10.928331 0.6700 0.6710 0.6710 0.6710 0.6710
10.963000 0.6700 0.6660 0.6660 0.6640 0.6610
10.997331 0.6590 0.6520 0.6460 0.6340 0.6250
11.031000 0.6220 0.6100 0.6050 0.5940 0.5840
11.065331 0.5700 0.5580 0.5430 0.5260 0.5070
11.100000 0.4880 0.4680 0.4490 0.4290 0.4080
11.134331 0.3880 0.3690 0.3500 0.3410 0.3310
11.169000 0.3120 0.2990 0.2850 0.2780 0.2700
11.203331 0.2660 0.2660 0.2700 0.2730 0.2830
11.237000 0.2950 0.3090 0.3240 0.3570 0.3700
11.271331 0.3840 0.3940 0.4100 0.4230 0.4340
11.306000 0.4460 0.4560 0.4640 0.4750 0.4850
11.340331 0.4940 0.4970 0.5020 0.5120 0.5190
11.375000 0.5260 0.5260 0.5290 0.5310 0.5350
11.409331 0.5380 0.5380 0.5380 0.5380 0.5400
11.443000 0.5400 0.5410 0.5430 0.5450 0.5470
11.477331 0.5480 0.5500 0.5520 0.5550 0.5570
11.512000 0.5570 0.5570 0.5570 0.5570 0.5570
11.546331 0.5570 0.5550 0.5520 0.5500 0.5500
11.580000 0.5480 0.5470 0.5450 0.5430 0.5430
11.614331 0.5380 0.5350 0.5290 0.5280 0.5240
11.649000 0.5210 0.5170 0.5140 0.5110 0.5070
11.683331 0.5050 0.5000 0.4990 0.4950 0.4940
11.718000 0.4850 0.4780 0.4730 0.4660 0.4590
11.752331 0.4520 0.4490 0.4470 0.4420 0.4320
11.786000 0.4270 0.4180 0.4100 0.3960 0.3890
11.820331 0.3820 0.3720 0.3640 0.3520 0.3350
11.855000 0.3290 0.3230 0.3120 0.3040 0.2950
11.889331 0.2830 0.2630 0.2470 0.2300 0.2200
11.924000 0.2060 0.1960 0.1890 0.1820 0.1760
11.958331 0.1640 0.1580 0.1500 0.1470 0.1400
11.992000 0.1350 0.1290 0.1240 0.1160 0.1090
12.026331 0.1040 0.0990 0.0900 0.0870 0.0830
12.061000 0.0820 0.0780 0.0760 0.0750 0.0730
12.095331 0.0710 0.0700 0.0680 0.0660 0.0640
12.129000 0.0610 0.0590 0.0560 0.0540 0.0510
12.163331 0.0470 0.0440 0.0420 0.0390 0.0340
12.198000 0.0290 0.0250 0.0220 0.0200 0.0180
12.232331 0.0170 0.0150 0.0130 0.0110 0.0110
12.267000 0.0110 0.0110 0.0130 0.0150 0.0180
12.301331 0.0220 0.0250 0.0340 0.0460 0.0540
12.335000 0.0630 0.0750 0.0900 0.1070 0.1260
12.369331 0.1450 0.1650 0.1860 0.2060 0.2250
12.404000 0.2440 0.2640 0.2830 0.3020 0.3230
12.438331 0.3600 0.3770 0.3940 0.4110 0.4250
12.473000 0.4410 0.4520 0.4640 0.4750 0.4830
12.507331 0.4940 0.5020 0.5120 0.5210 0.5330
12.541000 0.5430 0.5530 0.5640 0.5690 0.5760
12.575331 0.5810 0.5890 0.5980 0.6060 0.6130
12.610000 0.6220 0.6290 0.6340 0.6370 0.6410
12.644331 0.6440 0.6470 0.6510 0.6540 0.6580
12.678000 0.6590 0.6630 0.6700 0.6730 0.6760
12.712331 0.6800 0.6820 0.6850 0.6870 0.6900
12.747000 0.6920 0.6950 0.6970 0.6990 0.7020
12.781331 0.7040 0.7050 0.7050 0.7070 0.7070
12.816000 0.7090 0.7090 0.7110 0.7110 0.7120
12.850331 0.7120 0.7140 0.7140 0.7160 0.7170
12.884000 0.7190 0.7210 0.7230 0.7230 0.7240
12.918331 0.7240 0.7260 0.7260 0.7280 0.7280
12.953000 0.7280 0.7280 0.7280 0.7280 0.7280
12.987331 0.7280 0.7280 0.7280 0.7280 0.7280
13.022000 0.7280 0.7280 0.7290 0.7290 0.7290
13.056331 0.7290 0.7290 0.7290 0.7290 0.7290
13.090000 0.7280 0.7280 0.7280 0.7280 0.7280
13.124331 0.7280 0.7280 0.7280 0.7260 0.7260
13.159000 0.7240 0.7230 0.7230 0.7210 0.7210
13.193331 0.7210 0.7210 0.7190 0.7190 0.7190
13.227000 0.7190 0.7190 0.7190 0.7190 0.7190
13.261331 0.7190 0.7190 0.7170 0.7170 0.7170
13.296000 0.7160 0.7160 0.7160 0.7140 0.7140
13.330331 0.7120 0.7110 0.7110 0.7090 0.7090
13.365000 0.7070 0.7070 0.7050 0.7050 0.7050
13.399331 0.7050 0.7040 0.7020 0.7020 0.7000
13.433000 0.7000 0.7000 0.6990 0.6990 0.6990
13.467331 0.6970 0.6970 0.6970 0.6950 0.6940
13.502000 0.6940 0.6920 0.6900 0.6880 0.6880
13.536331 0.6880 0.6880 0.6880 0.6870 0.6870
13.571000 0.6870 0.6850 0.6850 0.6820 0.6800
13.605331 0.6800 0.6780 0.6760 0.6750 0.6750
13.639000 0.6750 0.6730 0.6730 0.6710 0.6710
13.673331 0.6700 0.6700 0.6660 0.6660 0.6640
13.708000 0.6630 0.6610 0.6590 0.6580 0.6580
13.742331 0.6560 0.6560 0.6560 0.6560 0.6540
13.776000 0.6540 0.6520 0.6510 0.6510 0.6490
13.810331 0.6470 0.6440 0.6410 0.6390 0.6390
13.845000 0.6370 0.6370 0.6370 0.6350 0.6350
13.879331 0.6320 0.6300 0.6290 0.6270 0.6250
13.914000 0.6220 0.6200 0.6180 0.6170 0.6170
13.948331 0.6170 0.6170 0.6150 0.6150 0.6110
13.982000 0.6100 0.6100 0.6060 0.6030 0.6000
14.016331 0.5940 0.5910 0.5890 0.5890 0.5880
14.051000 0.5820 0.5790 0.5790 0.5770 0.5760
14.085331 0.5740 0.5700 0.5690 0.5670 0.5650
14.120000 0.5600 0.5570 0.5570 0.5530 0.5520
14.154331 0.5500 0.5450 0.5400 0.5380 0.5330
14.188000 0.5310 0.5260 0.5230 0.5170 0.5140
14.222331 0.5110 0.5090 0.5000 0.5000 0.4990
14.257000 0.4970 0.4940 0.4900 0.4870 0.4850
14.291331 0.4850 0.4830 0.4830 0.4820 0.4820
14.325000 0.4800 0.4800 0.4800 0.4780 0.4780
14.359331 0.4780 0.4780 0.4800 0.4820 0.4830
14.394000 0.4850 0.4870 0.4880 0.4900 0.4900
14.428331 0.4920 0.4940 0.4970 0.4990 0.4990
14.463000 0.5000 0.5000 0.5020 0.5020 0.5020
14.497331 0.5040 0.5040 0.5040 0.5050 0.5050
14.531000 0.5050 0.5070 0.5070 0.5070 0.5090
14.565331 0.5090 0.5090 0.5090 0.5090 0.5070
14.600000 0.5070 0.5070 0.5070 0.5050 0.5050
14.634331 0.5050 0.5040 0.5040 0.5040 0.5020
14.669000 0.5020 0.5020 0.5020 0.5000 0.5000
14.703331 0.4990 0.4990 0.4970 0.4970 0.4950
14.737000 0.4920 0.4900 0.4880 0.4870 0.4850
14.771331 0.4850 0.4830 0.4820 0.4820 0.4820
14.806000 0.4800 0.4780 0.4780 0.4760 0.4760
14.840331 0.4730 0.4710 0.4700 0.4700 0.4700
14.875000 0.4700 0.4700 0.4700 0.4680 0.4680
14.909331 0.4680 0.4680 0.4680 0.4680 0.4680
14.943000 0.4680 0.4660 0.4640 0.4640 0.4630
14.977331 0.4630 0.4610 0.4610 0.4590 0.4580
15.012000 0.4560 0.4520 0.4510 0.4490 0.4490
15.046331 0.4470 0.4460 0.4460 0.4440 0.4420
15.080000 0.4390 0.4370 0.4370 0.4340 0.4300
15.114331 0.4300 0.4290 0.4270 0.4270 0.4250
15.149000 0.4230 0.4200 0.4180 0.4150 0.4130
15.183331 0.4130 0.4110 0.4110 0.4100 0.4100
15.218000 0.4080 0.4080 0.4060 0.4060 0.4050
15.252331 0.4030 0.4010 0.4010 0.4000 0.4000
15.286000 0.3980 0.3980 0.3960 0.3940 0.3930
15.320331 0.3930 0.3910 0.3890 0.3890 0.3890
15.355000 0.3880 0.3860 0.3860 0.3840 0.3820
15.389331 0.3820 0.3820 0.3820 0.3810 0.3810
15.424000 0.3810 0.3810 0.3810 0.3810 0.3810
15.458331 0.3810 0.3790 0.3790 0.3770 0.3770
15.492000 0.3760 0.3760 0.3740 0.3700 0.3700
15.526331 0.3690 0.3690 0.3690 0.3690 0.3690
15.561000 0.3670 0.3670 0.3670 0.3650 0.3640
15.595331 0.3640 0.3640 0.3640 0.3640 0.3640
15.629000 0.3620 0.3620 0.3600 0.3600 0.3580
15.663331 0.3580 0.3580 0.3580 0.3580 0.3580
15.698000 0.3580 0.3580 0.3570 0.3570 0.3570
15.732331 0.3570 0.3570 0.3570 0.3570 0.3550
15.767000 0.3530 0.3530 0.3530 0.3520 0.3520
15.801331 0.3500 0.3500 0.3480 0.3480 0.3480
15.835000 0.3480 0.3480 0.3480
##END=
