##TITLE=OXIRANE, 2-ETHENYL-
##JCAMP-DX=4.24
##DATA TYPE=INFRARED SPECTRUM
##CLASS=COBLENTZ
##ORIGIN=DOW CHEMICAL COMPANY
##OWNER=COBLENTZ SOCIETY
Collection (C) 2018 copyright by the U.S. Secretary of Commerce
on behalf of the United States of America. All rights reserved.
##DATE=1964
##NAMES=2-vinyloxirane
1-BUTENE, 3,4-EPOXY-
##CAS REGISTRY NO=930-22-3
##MOLFORM=C4 H6 O
##SOURCE REFERENCE=COBLENTZ NO. 8798
##$NIST SOURCE=COBLENTZ
##$NIST IMAGE=cob-r8798
##SPECTROMETER/DATA SYSTEM=DOW KBr FOREPRISM-GRATING
##INSTRUMENT PARAMETERS=GRATING CHANGED AT 5.0, 7.5, 15.0 MICRON
##STATE=GAS (100 mmHg, N2 ADDED, TOTAL PRESSURE 600 mmHg)
##PATH LENGTH=5 CM
##SAMPLING PROCEDURE=TRANSMISSION
##RESOLUTION=2
##DATA PROCESSING=DIGITIZED BY NIST FROM HARD COPY (FROM TWO SEGMENTS)
##XUNITS=1/CM
##YUNITS=TRANSMITTANCE
##XFACTOR=1.000000
##YFACTOR=1
##DELTAX=0.937503
##FIRSTX=463.438
##LASTX=3804.7
##FIRSTY=0.989
##MAXX=3804.7
##MINX=463.438
##MAXY=1.007
##MINY=0.047
##NPOINTS=3565
##XYDATA=(X++(Y..Y))
463.438000 0.9890 0.9890 0.9910 0.9920 0.9920
468.125516 0.9940 0.9940 0.9950 0.9950 0.9970
472.813031 0.9970 0.9970 0.9980 0.9980 1.0000
477.500547 1.0010 1.0010 1.0010 1.0020 1.0020
482.188063 1.0020 1.0040 1.0040 1.0040 1.0050
486.875579 1.0050 1.0050 1.0070 1.0070 1.0070
491.563094 1.0070 1.0070 1.0070 1.0070 1.0070
496.250610 1.0070 1.0070 1.0050 1.0050 1.0050
500.938126 1.0050 1.0050 1.0040 1.0040 1.0020
505.625641 1.0020 1.0020 1.0020 1.0020 1.0010
510.313157 1.0010 1.0010 1.0010 1.0010 1.0010
515.000673 1.0000 1.0000 0.9980 0.9980 0.9970
519.688189 0.9970 0.9950 0.9950 0.9940 0.9940
524.375704 0.9940 0.9940 0.9940 0.9940 0.9950
529.063220 0.9950 0.9950 0.9950 0.9950 0.9940
533.750736 0.9940 0.9940 0.9940 0.9910 0.9910
538.438251 0.9910 0.9910 0.9890 0.9890 0.9890
543.125767 0.9890 0.9890 0.9890 0.9890 0.9890
547.813283 0.9890 0.9890 0.9890 0.9890 0.9890
552.500799 0.9890 0.9890 0.9890 0.9890 0.9890
557.188314 0.9890 0.9890 0.9890 0.9890 0.9880
561.875830 0.9880 0.9880 0.9880 0.9880 0.9860
566.563346 0.9840 0.9840 0.9820 0.9810 0.9790
571.250861 0.9730 0.9700 0.9650 0.9600 0.9540
575.938377 0.9470 0.9410 0.9340 0.9270 0.9200
580.625893 0.9110 0.9020 0.8980 0.8900 0.8830
585.313409 0.8820 0.8820 0.8820 0.8830 0.8880
590.000924 0.8880 0.8850 0.8601 0.8431 0.8430
594.688440 0.8590 0.8750 0.8900 0.9200 0.8950
599.375956 0.8890 0.8830 0.8760 0.8730 0.8750
604.063471 0.8820 0.8890 0.8960 0.9080 0.9170
608.750987 0.9310 0.9430 0.9530 0.9630 0.9700
613.438503 0.9760 0.9820 0.9860 0.9880 0.9910
618.126019 0.9920 0.9920 0.9920 0.9920 0.9920
622.813534 0.9920 0.9910 0.9910 0.9890 0.9880
627.501050 0.9860 0.9850 0.9810 0.9780 0.9750
632.188566 0.9720 0.9690 0.9620 0.9560 0.9520
636.876081 0.9460 0.9370 0.9340 0.9300 0.9220
641.563597 0.9170 0.9140 0.9080 0.9020 0.8930
646.251113 0.8860 0.8750 0.8700 0.8630 0.8560
650.938629 0.8470 0.8370 0.8270 0.8220 0.8160
655.626144 0.8060 0.7950 0.7830 0.7800 0.7292
660.313660 0.6640 0.6580 0.6490 0.6420 0.6390
665.001176 0.6350 0.6330 0.6350 0.6430 0.6460
669.688691 0.6520 0.6540 0.6520 0.6510 0.6480
674.376207 0.6450 0.6460 0.6590 0.6700 0.6929
679.063723 0.6580 0.6400 0.6220 0.6190 0.6200
683.751239 0.6549 0.6710 0.6810 0.6989 0.7149
688.438754 0.7360 0.7870 0.8090 0.8440 0.8670
693.126270 0.8860 0.8930 0.8980 0.9109 0.9180
697.813786 0.9220 0.9250 0.9270 0.9340 0.9400
702.501301 0.9460 0.9500 0.9530 0.9530 0.9560
707.188817 0.9560 0.9600 0.9650 0.9680 0.9720
711.876333 0.9750 0.9790 0.9790 0.9810 0.9810
716.563849 0.9820 0.9840 0.9850 0.9850 0.9860
721.251364 0.9880 0.9880 0.9880 0.9880 0.9890
725.938880 0.9890 0.9890 0.9880 0.9880 0.9880
730.626396 0.9860 0.9860 0.9850 0.9850 0.9840
735.313911 0.9820 0.9780 0.9780 0.9760 0.9760
740.001427 0.9750 0.9720 0.9660 0.9600 0.9570
744.688943 0.9540 0.9530 0.9520 0.9500 0.9440
749.376459 0.9380 0.9330 0.9270 0.9210 0.9170
754.063974 0.9120 0.9110 0.9060 0.8950 0.8920
758.751490 0.8900 0.8880 0.8830 0.8691 0.8471
763.439006 0.8370 0.8340 0.8310 0.8240 0.8160
768.126521 0.8090 0.7970 0.7900 0.7790 0.7641
772.814037 0.7570 0.7470 0.7440 0.7350 0.7260
777.501553 0.7190 0.7130 0.7070 0.7000 0.7070
782.189069 0.7440 0.7440 0.7310 0.7230 0.7130
786.876584 0.7030 0.6940 0.6840 0.6750 0.6670
791.564100 0.6560 0.6480 0.6260 0.6040 0.5850
796.251616 0.5740 0.5521 0.5450 0.5271 0.5200
800.939131 0.5080 0.5000 0.4940 0.4910 0.4850
805.626647 0.4750 0.4521 0.4271 0.3373 0.2832
810.314163 0.2760 0.2680 0.2540 0.2390 0.2340
815.001679 0.2260 0.2190 0.2120 0.2000 0.1970
819.689194 0.2000 0.2150 0.2280 0.2290 0.2290
824.376710 0.2290 0.2260 0.2230 0.2200 0.2180
829.064226 0.2160 0.2190 0.2200 0.2260 0.2320
833.751741 0.2380 0.2440 0.2570 0.2600 0.2859
838.439257 0.3000 0.3080 0.3290 0.3430 0.3440
843.126773 0.3749 0.4049 0.4628 0.4859 0.5169
847.814289 0.5180 0.5260 0.5330 0.5450 0.5460
852.501804 0.5590 0.5720 0.5969 0.5980 0.6100
857.189320 0.6220 0.6420 0.6430 0.6560 0.6720
861.876836 0.6960 0.7409 0.7440 0.7550 0.7679
866.564351 0.7830 0.7920 0.8250 0.8280 0.8340
871.251867 0.8430 0.8470 0.8480 0.8500 0.8470
875.939383 0.8440 0.8430 0.8400 0.8340 0.8280
880.626899 0.8250 0.8220 0.8180 0.8110 0.7901
885.314414 0.7700 0.7570 0.7390 0.7190 0.6910
890.001930 0.6461 0.6250 0.6011 0.5243 0.4981
894.689446 0.4680 0.4530 0.4380 0.4080 0.3770
899.376961 0.3480 0.3181 0.2871 0.2730 0.2581
904.064477 0.2280 0.1970 0.1680 0.1380 0.1140
908.751993 0.1060 0.0970 0.0900 0.0820 0.0750
913.439509 0.0660 0.0620 0.0590 0.0560 0.0530
918.127024 0.0520 0.0500 0.0500 0.0490 0.0490
922.814540 0.0470 0.0470 0.0470 0.0470 0.0470
927.502056 0.0490 0.0490 0.0490 0.0490 0.0520
932.189571 0.0530 0.0560 0.0590 0.0610 0.0630
936.877087 0.0660 0.0710 0.0750 0.0810 0.0850
941.564603 0.0900 0.1040 0.1140 0.1250 0.1350
946.252119 0.1450 0.1550 0.1610 0.1799 0.2029
950.939634 0.2261 0.3020 0.3180 0.3250 0.3310
955.627150 0.3350 0.3480 0.3530 0.3600 0.3670
960.314666 0.3700 0.3760 0.3760 0.3770 0.3770
965.002181 0.3750 0.3690 0.3630 0.3600 0.3530
969.689697 0.3640 0.3540 0.3220 0.3120 0.3020
974.377213 0.2930 0.2830 0.2790 0.2730 0.2640
979.064729 0.2610 0.2640 0.2650 0.2670 0.2640
983.752244 0.2570 0.2550 0.2799 0.3019 0.3249
988.439760 0.3470 0.3701 0.4110 0.3560 0.3470
993.127276 0.3540 0.3560 0.3670 0.3820 0.3920
997.814791 0.4010 0.4080 0.4170 0.4240 0.4410
1002.502307 0.4600 0.4780 0.4970 0.5050 0.5170
1007.189823 0.5300 0.5450 0.5590 0.5740 0.5880
1011.877339 0.6010 0.6130 0.6419 0.6490 0.6610
1016.564854 0.6750 0.6810 0.6910 0.7020 0.7090
1021.252370 0.7220 0.7390 0.7510 0.7520 0.7600
1025.939886 0.7600 0.7610 0.7640 0.7920 0.7990
1030.627401 0.8050 0.8110 0.8240 0.8320 0.8400
1035.314917 0.8410 0.8480 0.8510 0.8540 0.8630
1040.002433 0.8670 0.8700 0.8790 0.8860 0.8930
1044.689949 0.8990 0.9050 0.9090 0.9170 0.9220
1049.377464 0.9270 0.9300 0.9330 0.9400 0.9440
1054.064980 0.9460 0.9490 0.9520 0.9530 0.9540
1058.752496 0.9540 0.9560 0.9560 0.9560 0.9560
1063.440011 0.9560 0.9540 0.9540 0.9530 0.9500
1068.127527 0.9490 0.9470 0.9430 0.9400 0.9370
1072.815043 0.9330 0.9300 0.9270 0.9220 0.9200
1077.502559 0.9170 0.9150 0.9150 0.9150 0.9170
1082.190074 0.9180 0.9200 0.9210 0.9200 0.9180
1086.877590 0.9120 0.9080 0.9060 0.9060 0.9150
1091.565106 0.9200 0.9180 0.9150 0.9120 0.9090
1096.252621 0.9090 0.9080 0.9090 0.9110 0.9120
1100.940137 0.9150 0.9180 0.9210 0.9220 0.9240
1105.627653 0.9240 0.9220 0.9220 0.9220 0.9210
1110.315169 0.9210 0.9200 0.9170 0.9170 0.9150
1115.002684 0.9090 0.9080 0.9060 0.9050 0.8990
1119.690200 0.8950 0.8900 0.8880 0.8800 0.8770
1124.377716 0.8750 0.8670 0.8670 0.8640 0.8610
1129.065231 0.8590 0.8570 0.8540 0.8500 0.8470
1133.752747 0.8450 0.8440 0.8430 0.8400 0.8400
1138.440263 0.8400 0.8380 0.8370 0.8370 0.8370
1143.127779 0.8370 0.8380 0.8400 0.8410 0.8450
1147.815294 0.8470 0.8590 0.8600 0.8670 0.8730
1152.502810 0.8760 0.8820 0.8860 0.8880 0.8890
1157.190326 0.8900 0.8930 0.8960 0.8990 0.9060
1161.877841 0.9080 0.9110 0.9140 0.9180 0.9210
1166.565357 0.9270 0.9280 0.9330 0.9370 0.9400
1171.252873 0.9430 0.9470 0.9500 0.9520 0.9560
1175.940389 0.9560 0.9570 0.9590 0.9600 0.9600
1180.627904 0.9620 0.9620 0.9630 0.9660 0.9680
1185.315420 0.9690 0.9690 0.9700 0.9700 0.9720
1190.002936 0.9720 0.9720 0.9720 0.9720 0.9720
1194.690451 0.9720 0.9700 0.9690 0.9690 0.9690
1199.377967 0.9690 0.9680 0.9680 0.9660 0.9650
1204.065483 0.9650 0.9630 0.9620 0.9620 0.9600
1208.752999 0.9570 0.9560 0.9560 0.9530 0.9500
1213.440514 0.9470 0.9440 0.9410 0.9360 0.9280
1218.128030 0.9210 0.9140 0.9090 0.9050 0.8960
1222.815546 0.8860 0.8790 0.8720 0.8670 0.8640
1227.503061 0.8530 0.8470 0.8410 0.8310 0.8240
1232.190577 0.8160 0.8050 0.7900 0.7810 0.7730
1236.878093 0.7600 0.7540 0.7410 0.7310 0.7190
1241.565609 0.7020 0.6970 0.6930 0.6900 0.6860
1246.253124 0.6830 0.6810 0.6780 0.6740 0.6720
1250.940640 0.6700 0.6680 0.6680 0.6700 0.6710
1255.628156 0.6710 0.6740 0.6770 0.6810 0.6870
1260.315671 0.6930 0.7020 0.7100 0.7190 0.7230
1265.003187 0.7230 0.7310 0.7360 0.7410 0.7440
1269.690703 0.7540 0.7570 0.7670 0.7740 0.7830
1274.378219 0.7900 0.7920 0.7930 0.7990 0.8080
1279.065734 0.8090 0.8090 0.8130 0.8220 0.8250
1283.753250 0.8290 0.8370 0.8380 0.8400 0.8400
1288.440766 0.8410 0.8430 0.8440 0.8590 0.8600
1293.128281 0.8640 0.8640 0.8640 0.8660 0.8670
1297.815797 0.8670 0.8730 0.8760 0.8800 0.8850
1302.503313 0.8900 0.8980 0.9040 0.9060 0.9080
1307.190829 0.9150 0.9200 0.9220 0.9250 0.9270
1311.878344 0.9280 0.9300 0.9330 0.9340 0.9360
1316.565860 0.9360 0.9340 0.9340 0.9340 0.9330
1321.253376 0.9330 0.9310 0.9300 0.9280 0.9270
1325.940891 0.9240 0.9210 0.9170 0.9120 0.9090
1330.628407 0.9050 0.9010 0.8950 0.8930 0.8880
1335.315923 0.8790 0.8660 0.8530 0.8350 0.8270
1340.003439 0.8180 0.7990 0.7770 0.7610 0.7550
1344.690954 0.7480 0.7500 0.7510 0.7550 0.7580
1349.378470 0.7710 0.7740 0.7740 0.7161 0.6941
1354.065986 0.7709 0.7360 0.7250 0.7180 0.7100
1358.753501 0.7070 0.7060 0.7070 0.7150 0.7190
1363.441017 0.7441 0.7670 0.7810 0.7930 0.8250
1368.128533 0.8410 0.8470 0.8530 0.8590 0.8600
1372.816049 0.8600 0.8610 0.8610 0.8610 0.8610
1377.503564 0.8630 0.8630 0.8640 0.8640 0.8660
1382.191080 0.8720 0.8760 0.8730 0.8730 0.8730
1386.878596 0.8720 0.8720 0.8720 0.8700 0.8700
1391.566111 0.8690 0.8690 0.8690 0.8700 0.8700
1396.253627 0.8700 0.8720 0.8750 0.8720 0.8720
1400.941143 0.8720 0.8670 0.8640 0.8600 0.8570
1405.628659 0.8530 0.8480 0.8380 0.8280 0.8240
1410.316174 0.8210 0.8180 0.8130 0.8060 0.8000
1415.003690 0.7990 0.8000 0.8000 0.8020 0.8030
1419.691206 0.8050 0.8050 0.8048 0.7090 0.7060
1424.378721 0.7070 0.7120 0.7150 0.6880 0.6740
1429.066237 0.6549 0.6379 0.6199 0.5709 0.5370
1433.753753 0.5080 0.5020 0.4780 0.4730 0.4750
1438.441269 0.4760 0.4840 0.4910 0.5000 0.5070
1443.128784 0.5200 0.5330 0.5470 0.5610 0.5770
1447.816300 0.5659 0.5447 0.4522 0.5490 0.5450
1452.503816 0.5420 0.5420 0.5420 0.5450 0.5560
1457.191331 0.5740 0.5882 0.6491 0.6721 0.7041
1461.878847 0.7500 0.7950 0.7970 0.8340 0.8400
1466.566363 0.8440 0.8440 0.8450 0.8480 0.8480
1471.253879 0.8450 0.8450 0.8430 0.8430 0.8410
1475.941394 0.8410 0.8410 0.8410 0.8430 0.8430
1480.628910 0.8430 0.8400 0.8380 0.8350 0.8320
1485.316426 0.8320 0.8310 0.8290 0.8270 0.8270
1490.003941 0.8270 0.8290 0.8310 0.8340 0.8350
1494.691457 0.8400 0.8440 0.8470 0.8510 0.8560
1499.378973 0.8590 0.8630 0.8660 0.8720 0.8790
1504.066489 0.8850 0.8880 0.8880 0.8900 0.8920
1508.754004 0.8930 0.8930 0.8930 0.8960 0.9020
1513.441520 0.9110 0.9240 0.9250 0.9310 0.9370
1518.129036 0.9430 0.9470 0.9520 0.9570 0.9590
1522.816551 0.9620 0.9630 0.9650 0.9660 0.9680
1527.504067 0.9690 0.9700 0.9720 0.9730 0.9730
1532.191583 0.9750 0.9760 0.9760 0.9780 0.9780
1536.879099 0.9790 0.9790 0.9790 0.9790 0.9810
1541.566614 0.9790 0.9780 0.9760 0.9750 0.9730
1546.254130 0.9750 0.9760 0.9760 0.9780 0.9790
1550.941646 0.9790 0.9810 0.9810 0.9810 0.9810
1555.629161 0.9790 0.9760 0.9720 0.9690 0.9700
1560.316677 0.9700 0.9720 0.9720 0.9730 0.9730
1565.004193 0.9700 0.9720 0.9700 0.9690 0.9680
1569.691709 0.9660 0.9630 0.9620 0.9590 0.9560
1574.379224 0.9540 0.9530 0.9500 0.9440 0.9400
1579.066740 0.9360 0.9330 0.9280 0.9250 0.9240
1583.754256 0.9220 0.9210 0.9180 0.9170 0.9150
1588.441771 0.9150 0.9140 0.9120 0.9120 0.9110
1593.129287 0.9090 0.9090 0.9080 0.9060 0.9050
1597.816803 0.9020 0.9020 0.8990 0.8960 0.8950
1602.504319 0.8930 0.8930 0.8930 0.8930 0.8930
1607.191834 0.8950 0.8950 0.8950 0.8950 0.8950
1611.879350 0.8950 0.8950 0.8950 0.8930 0.8930
1616.566866 0.8920 0.8890 0.8850 0.8820 0.8800
1621.254381 0.8790 0.8750 0.8720 0.8690 0.8640
1625.941897 0.8530 0.8430 0.8370 0.8280 0.8240
1630.629413 0.8210 0.8180 0.8090 0.8030 0.7960
1635.316929 0.7869 0.7670 0.7570 0.7440 0.7380
1640.004444 0.7280 0.7180 0.7150 0.7100 0.7040
1644.691960 0.7020 0.6990 0.6960 0.6910 0.6870
1649.379476 0.6810 0.6880 0.6940 0.7070 0.7280
1654.066991 0.7070 0.7040 0.7030 0.7030 0.7030
1658.754507 0.7020 0.7000 0.6960 0.6930 0.6970
1663.442023 0.7470 0.7580 0.7680 0.7700 0.7901
1668.129539 0.8310 0.8510 0.8690 0.8830 0.9200
1672.817054 0.9220 0.9310 0.9410 0.9440 0.9460
1677.504570 0.9500 0.9540 0.9560 0.9630 0.9630
1682.192086 0.9630 0.9630 0.9620 0.9620 0.9620
1686.879601 0.9650 0.9650 0.9660 0.9660 0.9690
1691.567117 0.9700 0.9700 0.9720 0.9700 0.9700
1696.254633 0.9690 0.9660 0.9630 0.9590 0.9590
1700.942149 0.9560 0.9530 0.9500 0.9470 0.9440
1705.629664 0.9410 0.9370 0.9300 0.9250 0.9240
1710.317180 0.9209 0.9060 0.9040 0.9040 0.9040
1715.004696 0.9040 0.9040 0.9040 0.9040 0.9040
1719.692211 0.9020 0.9010 0.8990 0.8980 0.8980
1724.379727 0.8980 0.8990 0.9020 0.9040 0.9050
1729.067243 0.9090 0.9120 0.9150 0.9220 0.9270
1733.754759 0.9300 0.9330 0.9330 0.9400 0.9410
1738.442274 0.9440 0.9460 0.9460 0.9470 0.9490
1743.129790 0.9490 0.9500 0.9500 0.9490 0.9490
1747.817306 0.9490 0.9490 0.9490 0.9500 0.9500
1752.504821 0.9540 0.9590 0.9600 0.9620 0.9630
1757.192337 0.9630 0.9630 0.9650 0.9650 0.9660
1761.879853 0.9680 0.9680 0.9680 0.9690 0.9700
1766.567369 0.9700 0.9700 0.9700 0.9720 0.9720
1771.254884 0.9720 0.9720 0.9730 0.9750 0.9760
1775.942400 0.9760 0.9780 0.9790 0.9810 0.9810
1780.629916 0.9810 0.9820 0.9820 0.9820 0.9840
1785.317431 0.9840 0.9840 0.9840 0.9850 0.9850
1790.004947 0.9850 0.9850 0.9850 0.9850 0.9850
1794.692463 0.9850 0.9850 0.9850 0.9850 0.9850
1799.379979 0.9850 0.9850 0.9850 0.9850 0.9850
1804.067494 0.9850 0.9850 0.9850 0.9840 0.9840
1808.755010 0.9840 0.9840 0.9840 0.9820 0.9820
1813.442526 0.9810 0.9810 0.9810 0.9820 0.9790
1818.130041 0.9780 0.9760 0.9750 0.9750 0.9720
1822.817557 0.9660 0.9620 0.9590 0.9500 0.9430
1827.505073 0.9330 0.9280 0.9210 0.9090 0.8880
1832.192589 0.8689 0.8529 0.8340 0.8270 0.8179
1836.880104 0.7960 0.7950 0.7840 0.7830 0.7830
1841.567620 0.7830 0.7840 0.7840 0.7860 0.7890
1846.255136 0.7900 0.7920 0.7990 0.8270 0.8270
1850.942651 0.8089 0.7899 0.7709 0.7540 0.7510
1855.630167 0.7520 0.7610 0.7700 0.7790 0.7870
1860.317683 0.8281 0.8471 0.8630 0.8760 0.8890
1865.005199 0.8990 0.9050 0.9140 0.9210 0.9220
1869.692714 0.9270 0.9280 0.9340 0.9360 0.9370
1874.380230 0.9380 0.9400 0.9410 0.9430 0.9430
1879.067746 0.9460 0.9490 0.9500 0.9500 0.9530
1883.755261 0.9560 0.9570 0.9590 0.9600 0.9620
1888.442777 0.9630 0.9630 0.9650 0.9660 0.9680
1893.130293 0.9680 0.9680 0.9700 0.9700 0.9700
1897.817809 0.9720 0.9720 0.9720 0.9720 0.9720
1902.505324 0.9720 0.9730 0.9750 0.9750 0.9750
1907.192840 0.9750 0.9750 0.9750 0.9750 0.9750
1911.880356 0.9750 0.9750 0.9750 0.9750 0.9750
1916.567871 0.9750 0.9750 0.9750 0.9750 0.9730
1921.255387 0.9730 0.9730 0.9730 0.9730 0.9730
1925.942903 0.9730 0.9720 0.9720 0.9720 0.9700
1930.630419 0.9700 0.9690 0.9680 0.9680 0.9650
1935.317934 0.9650 0.9650 0.9650 0.9650 0.9650
1940.005450 0.9630 0.9620 0.9620 0.9590 0.9600
1944.692966 0.9600 0.9620 0.9620 0.9620 0.9600
1949.380481 0.9590 0.9570 0.9570 0.9570 0.9540
1954.067997 0.9540 0.9530 0.9530 0.9530 0.9530
1958.755513 0.9530 0.9540 0.9540 0.9540 0.9560
1963.443029 0.9570 0.9570 0.9590 0.9600 0.9600
1968.130544 0.9620 0.9630 0.9650 0.9660 0.9680
1972.818060 0.9690 0.9690 0.9700 0.9720 0.9730
1977.505576 0.9750 0.9760 0.9760 0.9780 0.9790
1982.193091 0.9810 0.9820 0.9840 0.9840 0.9850
1986.880607 0.9850 0.9850 0.9860 0.9860 0.9860
1991.568123 0.9860 0.9880 0.9880 0.9880 0.9880
1996.255639 0.9890 0.9890 0.9890 0.9910 0.9910
2000.943154 0.9910 0.9910 0.9910 0.9910 0.9910
2005.630670 0.9910 0.9910 0.9910 0.9910 0.9910
2010.318186 0.9910 0.9910 0.9910 0.9910 0.9910
2015.005701 0.9910 0.9910 0.9910 0.9910 0.9910
2019.693217 0.9900 0.9890 0.9890 0.9890 0.9890
2024.380733 0.9890 0.9885 0.9880 0.9880 0.9880
2029.068249 0.9870 0.9860 0.9860 0.9860 0.9855
2033.755764 0.9850 0.9845 0.9840 0.9830 0.9820
2038.443280 0.9815 0.9810 0.9796 0.9781 0.9780
2043.130796 0.9780 0.9770 0.9760 0.9755 0.9750
2047.818311 0.9750 0.9750 0.9741 0.9731 0.9716
2052.505827 0.9701 0.9700 0.9700 0.9695 0.9690
2057.193343 0.9690 0.9690 0.9690 0.9690 0.9690
2061.880859 0.9690 0.9690 0.9690 0.9695 0.9700
2066.568374 0.9700 0.9700 0.9709 0.9719 0.9720
2071.255890 0.9720 0.9725 0.9730 0.9739 0.9749
2075.943406 0.9755 0.9760 0.9769 0.9779 0.9780
2080.630921 0.9780 0.9798 0.9818 0.9820 0.9820
2085.318437 0.9829 0.9839 0.9840 0.9840 0.9840
2090.005953 0.9840 0.9840 0.9840 0.9845 0.9850
2094.693469 0.9850 0.9850 0.9850 0.9850 0.9855
2099.380984 0.9860 0.9860 0.9860 0.9860 0.9860
2104.068500 0.9860 0.9860 0.9860 0.9860 0.9860
2108.756016 0.9860 0.9860 0.9860 0.9860 0.9860
2113.443531 0.9860 0.9860 0.9860 0.9860 0.9860
2118.131047 0.9860 0.9860 0.9860 0.9860 0.9860
2122.818563 0.9860 0.9860 0.9860 0.9860 0.9860
2127.506079 0.9860 0.9860 0.9860 0.9860 0.9860
2132.193594 0.9856 0.9851 0.9850 0.9850 0.9850
2136.881110 0.9850 0.9850 0.9850 0.9846 0.9841
2141.568626 0.9840 0.9840 0.9840 0.9840 0.9831
2146.256141 0.9821 0.9820 0.9820 0.9816 0.9811
2150.943657 0.9810 0.9810 0.9801 0.9791 0.9790
2155.631173 0.9790 0.9777 0.9762 0.9756 0.9751
2160.318689 0.9750 0.9750 0.9750 0.9750 0.9742
2165.006204 0.9732 0.9730 0.9730 0.9730 0.9730
2169.693720 0.9730 0.9730 0.9730 0.9730 0.9730
2174.381236 0.9730 0.9730 0.9730 0.9730 0.9730
2179.068751 0.9730 0.9730 0.9730 0.9730 0.9738
2183.756267 0.9748 0.9750 0.9750 0.9754 0.9759
2188.443783 0.9760 0.9760 0.9760 0.9760 0.9760
2193.131299 0.9760 0.9772 0.9787 0.9790 0.9790
2197.818814 0.9790 0.9790 0.9798 0.9808 0.9810
2202.506330 0.9810 0.9802 0.9792 0.9790 0.9790
2207.193846 0.9790 0.9790 0.9790 0.9790 0.9790
2211.881361 0.9790 0.9778 0.9763 0.9760 0.9760
2216.568877 0.9760 0.9760 0.9760 0.9760 0.9756
2221.256393 0.9751 0.9742 0.9732 0.9730 0.9730
2225.943909 0.9730 0.9730 0.9730 0.9730 0.9730
2230.631424 0.9730 0.9730 0.9730 0.9730 0.9730
2235.318940 0.9726 0.9721 0.9712 0.9702 0.9696
2240.006456 0.9691 0.9686 0.9681 0.9669 0.9653
2244.693971 0.9642 0.9632 0.9618 0.9603 0.9585
2249.381487 0.9565 0.9549 0.9534 0.9526 0.9521
2254.069003 0.9509 0.9494 0.9483 0.9473 0.9466
2258.756519 0.9461 0.9453 0.9443 0.9429 0.9414
2263.444034 0.9406 0.9401 0.9392 0.9383 0.9387
2268.131550 0.9397 0.9400 0.9400 0.9411 0.9426
2272.819066 0.9434 0.9439 0.9447 0.9457 0.9464
2277.506581 0.9469 0.9488 0.9513 0.9520 0.9520
2282.194097 0.9527 0.9537 0.9551 0.9566 0.9581
2286.881613 0.9596 0.9611 0.9626 0.9641 0.9656
2291.569129 0.9674 0.9694 0.9707 0.9717 0.9724
2296.256644 0.9729 0.9737 0.9747 0.9754 0.9759
2300.944160 0.9767 0.9777 0.9780 0.9780 0.9791
2305.631676 0.9806 0.9814 0.9819 0.9827 0.9837
2310.319191 0.9840 0.9840 0.9843 0.9848 0.9853
2315.006707 0.9858 0.9860 0.9860 0.9867 0.9877
2319.694223 0.9880 0.9880 0.9880 0.9880 0.9883
2324.381739 0.9888 0.9890 0.9890 0.9890 0.9890
2329.069254 0.9897 0.9907 0.9913 0.9918 0.9920
2333.756770 0.9920 0.9927 0.9937 0.9940 0.9940
2338.444286 0.9940 0.9940 0.9940 0.9940 0.9940
2343.131801 0.9940 0.9940 0.9940 0.9940 0.9940
2347.819317 0.9933 0.9923 0.9920 0.9920 0.9917
2352.506833 0.9912 0.9910 0.9910 0.9903 0.9893
2357.194349 0.9890 0.9890 0.9890 0.9890 0.9890
2361.881864 0.9890 0.9890 0.9890 0.9890 0.9890
2366.569380 0.9890 0.9890 0.9896 0.9906 0.9910
2371.256896 0.9910 0.9910 0.9910 0.9913 0.9918
2375.944411 0.9920 0.9920 0.9926 0.9936 0.9940
2380.631927 0.9940 0.9940 0.9940 0.9940 0.9940
2385.319443 0.9940 0.9940 0.9940 0.9940 0.9940
2390.006959 0.9940 0.9940 0.9940 0.9940 0.9940
2394.694474 0.9934 0.9924 0.9920 0.9920 0.9917
2399.381990 0.9912 0.9904 0.9894 0.9890 0.9890
2404.069506 0.9890 0.9890 0.9896 0.9906 0.9910
2408.757021 0.9910 0.9904 0.9894 0.9887 0.9882
2413.444537 0.9880 0.9880 0.9874 0.9864 0.9860
2418.132053 0.9860 0.9857 0.9852 0.9853 0.9858
2422.819569 0.9860 0.9860 0.9866 0.9876 0.9880
2427.507084 0.9880 0.9883 0.9888 0.9890 0.9890
2432.194600 0.9890 0.9890 0.9896 0.9906 0.9910
2436.882116 0.9910 0.9910 0.9910 0.9910 0.9910
2441.569631 0.9910 0.9910 0.9910 0.9910 0.9910
2446.257147 0.9910 0.9910 0.9910 0.9910 0.9910
2450.944663 0.9910 0.9910 0.9910 0.9910 0.9910
2455.632179 0.9910 0.9910 0.9910 0.9910 0.9910
2460.319694 0.9904 0.9894 0.9890 0.9890 0.9887
2465.007210 0.9882 0.9880 0.9880 0.9875 0.9864
2469.694726 0.9857 0.9852 0.9850 0.9850 0.9847
2474.382241 0.9842 0.9840 0.9840 0.9840 0.9840
2479.069757 0.9840 0.9840 0.9840 0.9840 0.9840
2483.757273 0.9840 0.9843 0.9848 0.9850 0.9850
2488.444789 0.9853 0.9858 0.9865 0.9875 0.9880
2493.132304 0.9880 0.9883 0.9888 0.9895 0.9905
2497.819820 0.9910 0.9910 0.9913 0.9918 0.9920
2502.507336 0.9920 0.9920 0.9920 0.9920 0.9920
2507.194851 0.9920 0.9920 0.9920 0.9920 0.9925
2511.882367 0.9935 0.9940 0.9940 0.9940 0.9940
2516.569883 0.9940 0.9940 0.9940 0.9940 0.9940
2521.257399 0.9940 0.9940 0.9940 0.9940 0.9940
2525.944914 0.9940 0.9940 0.9940 0.9940 0.9935
2530.632430 0.9925 0.9920 0.9920 0.9920 0.9920
2535.319946 0.9920 0.9920 0.9920 0.9920 0.9920
2540.007461 0.9920 0.9920 0.9920 0.9920 0.9920
2544.694977 0.9920 0.9920 0.9920 0.9920 0.9920
2549.382493 0.9920 0.9920 0.9920 0.9920 0.9920
2554.070009 0.9920 0.9920 0.9920 0.9920 0.9918
2558.757524 0.9913 0.9910 0.9910 0.9910 0.9910
2563.445040 0.9910 0.9910 0.9905 0.9895 0.9890
2568.132556 0.9890 0.9890 0.9890 0.9888 0.9883
2572.820071 0.9880 0.9880 0.9880 0.9880 0.9876
2577.507587 0.9866 0.9860 0.9860 0.9860 0.9860
2582.195103 0.9858 0.9853 0.9850 0.9850 0.9850
2586.882619 0.9850 0.9848 0.9843 0.9836 0.9826
2591.570134 0.9820 0.9820 0.9820 0.9820 0.9820
2596.257650 0.9820 0.9820 0.9820 0.9820 0.9820
2600.945166 0.9820 0.9820 0.9818 0.9813 0.9810
2605.632681 0.9810 0.9810 0.9810 0.9812 0.9817
2610.320197 0.9820 0.9820 0.9820 0.9820 0.9820
2615.007713 0.9820 0.9824 0.9834 0.9840 0.9840
2619.695229 0.9840 0.9840 0.9840 0.9840 0.9842
2624.382744 0.9847 0.9852 0.9857 0.9864 0.9874
2629.070260 0.9880 0.9880 0.9882 0.9887 0.9894
2633.757776 0.9904 0.9910 0.9910 0.9912 0.9917
2638.445291 0.9920 0.9920 0.9924 0.9934 0.9940
2643.132807 0.9940 0.9940 0.9940 0.9942 0.9947
2647.820323 0.9950 0.9950 0.9950 0.9950 0.9950
2652.507839 0.9950 0.9954 0.9964 0.9970 0.9970
2657.195354 0.9970 0.9970 0.9970 0.9970 0.9970
2661.882870 0.9970 0.9970 0.9970 0.9970 0.9970
2666.570386 0.9970 0.9970 0.9966 0.9956 0.9950
2671.257901 0.9950 0.9950 0.9950 0.9950 0.9950
2675.945417 0.9948 0.9943 0.9940 0.9940 0.9940
2680.632933 0.9940 0.9936 0.9926 0.9920 0.9920
2685.320449 0.9918 0.9913 0.9910 0.9910 0.9910
2690.007964 0.9910 0.9910 0.9910 0.9910 0.9910
2694.695480 0.9910 0.9910 0.9910 0.9910 0.9907
2699.382996 0.9897 0.9890 0.9890 0.9890 0.9890
2704.070511 0.9888 0.9883 0.9877 0.9867 0.9860
2708.758027 0.9860 0.9860 0.9860 0.9858 0.9853
2713.445543 0.9850 0.9850 0.9850 0.9850 0.9848
2718.133059 0.9843 0.9840 0.9840 0.9840 0.9840
2722.820574 0.9837 0.9827 0.9820 0.9820 0.9818
2727.508090 0.9814 0.9810 0.9810 0.9807 0.9797
2732.195606 0.9790 0.9790 0.9790 0.9790 0.9788
2736.883121 0.9784 0.9780 0.9780 0.9777 0.9767
2741.570637 0.9759 0.9754 0.9750 0.9750 0.9750
2746.258153 0.9750 0.9750 0.9750 0.9747 0.9737
2750.945669 0.9730 0.9730 0.9730 0.9730 0.9729
2755.633184 0.9724 0.9720 0.9720 0.9720 0.9720
2760.320700 0.9720 0.9720 0.9720 0.9720 0.9720
2765.008216 0.9720 0.9720 0.9720 0.9720 0.9720
2769.695731 0.9720 0.9720 0.9720 0.9720 0.9720
2774.383247 0.9720 0.9720 0.9720 0.9720 0.9720
2779.070763 0.9720 0.9720 0.9721 0.9726 0.9732
2783.758279 0.9742 0.9751 0.9756 0.9760 0.9760
2788.445794 0.9760 0.9760 0.9760 0.9760 0.9760
2793.133310 0.9760 0.9760 0.9760 0.9760 0.9760
2797.820826 0.9760 0.9760 0.9760 0.9760 0.9762
2802.508341 0.9772 0.9780 0.9780 0.9780 0.9780
2807.195857 0.9780 0.9780 0.9780 0.9780 0.9780
2811.883373 0.9780 0.9780 0.9780 0.9778 0.9768
2816.570889 0.9760 0.9760 0.9760 0.9760 0.9760
2821.258404 0.9760 0.9759 0.9754 0.9750 0.9750
2825.945920 0.9748 0.9738 0.9730 0.9730 0.9730
2830.633436 0.9730 0.9730 0.9730 0.9730 0.9730
2835.320951 0.9730 0.9730 0.9730 0.9730 0.9729
2840.008467 0.9724 0.9720 0.9720 0.9720 0.9720
2844.695983 0.9720 0.9720 0.9720 0.9720 0.9720
2849.383499 0.9720 0.9718 0.9708 0.9698 0.9688
2854.071014 0.9678 0.9668 0.9657 0.9642 0.9629
2858.758530 0.9624 0.9617 0.9602 0.9587 0.9572
2863.446046 0.9557 0.9542 0.9527 0.9512 0.9499
2868.133561 0.9494 0.9487 0.9472 0.9458 0.9448
2872.821077 0.9434 0.9399 0.9367 0.9347 0.9330
2877.508593 0.9330 0.9328 0.9313 0.9296 0.9271
2882.196109 0.9246 0.9221 0.9196 0.9171 0.9145
2886.883624 0.9115 0.9089 0.9084 0.9073 0.9028
2891.571140 0.8982 0.8927 0.8871 0.8806 0.8742
2896.258656 0.8687 0.8635 0.8600 0.8559 0.8478
2900.946171 0.8402 0.8353 0.8301 0.8241 0.8173
2905.633687 0.8053 0.7928 0.7774 0.7618 0.7459
2910.321203 0.7297 0.7122 0.6937 0.6677 0.6446
2915.008719 0.6411 0.6375 0.6335 0.6290 0.6204
2919.696234 0.6118 0.6028 0.5939 0.5854 0.5769
2924.383750 0.5684 0.5599 0.5509 0.5421 0.5341
2929.071266 0.5270 0.5270 0.5272 0.5287 0.5303
2933.758781 0.5333 0.5361 0.5365 0.5371 0.5381
2938.446297 0.5392 0.5407 0.5429 0.5514 0.5601
2943.133813 0.5701 0.5792 0.5807 0.5826 0.5886
2947.821329 0.5946 0.6006 0.6065 0.6120 0.6175
2952.508844 0.6235 0.6293 0.6328 0.6360 0.6360
2957.196360 0.6361 0.6371 0.6380 0.6380 0.6376
2961.883876 0.6336 0.6298 0.6273 0.6247 0.6207
2966.571391 0.6157 0.5992 0.5828 0.5668 0.5512
2971.258907 0.5402 0.5292 0.5167 0.5042 0.4921
2975.946423 0.4805 0.4745 0.4685 0.4620 0.4531
2980.633938 0.4126 0.3736 0.3531 0.3335 0.3255
2985.321454 0.3172 0.3048 0.2925 0.2840 0.2755
2990.008970 0.2660 0.2565 0.2470 0.2376 0.2280
2994.696486 0.2184 0.2089 0.1994 0.1900 0.1805
2999.384001 0.1710 0.1615 0.1520 0.1426 0.1336
3004.071517 0.1250 0.1250 0.1250 0.1240 0.1230
3008.759033 0.1230 0.1230 0.1240 0.1250 0.1255
3013.446548 0.1262 0.1296 0.1332 0.1382 0.1432
3018.134064 0.1477 0.1522 0.1582 0.1642 0.1696
3022.821580 0.1752 0.1811 0.1871 0.1931 0.1994
3027.509096 0.2208 0.2421 0.2471 0.2520 0.2520
3032.196611 0.2518 0.2453 0.2388 0.2308 0.2229
3036.884127 0.2179 0.2129 0.2084 0.2040 0.2000
3041.571643 0.1960 0.1915 0.1870 0.1825 0.1780
3046.259158 0.1730 0.1680 0.1675 0.1670 0.1655
3050.946674 0.1640 0.1640 0.1640 0.1640 0.1640
3055.634190 0.1645 0.1650 0.1710 0.1770 0.1825
3060.321706 0.1879 0.1939 0.1999 0.2089 0.2178
3065.009221 0.2263 0.2348 0.2443 0.2538 0.2712
3069.696737 0.2888 0.3068 0.3248 0.3339 0.3429
3074.384253 0.3597 0.3767 0.3912 0.4056 0.4191
3079.071768 0.4326 0.4577 0.4832 0.4980 0.5125
3083.759284 0.5231 0.5336 0.5398 0.5457 0.5412
3088.446800 0.5361 0.5316 0.5271 0.5226 0.5182
3093.134316 0.5132 0.5082 0.5042 0.5002 0.4957
3097.821831 0.4912 0.4867 0.4822 0.4787 0.4752
3102.509347 0.4736 0.4721 0.4734 0.4749 0.4793
3107.196863 0.4838 0.4878 0.4918 0.4944 0.4969
3111.884378 0.5098 0.5232 0.5405 0.5579 0.5712
3116.571894 0.5842 0.5939 0.6034 0.6207 0.6387
3121.259410 0.6516 0.6641 0.6664 0.6679 0.6898
3125.946926 0.7135 0.7646 0.8175 0.8373 0.8548
3130.634441 0.8574 0.8589 0.8803 0.9032 0.9165
3135.321957 0.9290 0.9328 0.9357 0.9378 0.9398
3140.009473 0.9418 0.9438 0.9467 0.9497 0.9518
3144.696988 0.9538 0.9563 0.9588 0.9636 0.9686
3149.384504 0.9695 0.9700 0.9709 0.9719 0.9738
3154.072020 0.9758 0.9769 0.9779 0.9784 0.9789
3158.759536 0.9799 0.9809 0.9810 0.9810 0.9814
3163.447051 0.9820 0.9829 0.9839 0.9840 0.9840
3168.134567 0.9840 0.9840 0.9844 0.9849 0.9850
3172.822083 0.9850 0.9850 0.9850 0.9850 0.9850
3177.509598 0.9850 0.9850 0.9850 0.9850 0.9846
3182.197114 0.9841 0.9844 0.9849 0.9850 0.9850
3186.884630 0.9850 0.9850 0.9850 0.9850 0.9854
3191.572146 0.9859 0.9860 0.9860 0.9860 0.9860
3196.259661 0.9860 0.9860 0.9860 0.9860 0.9860
3200.947177 0.9860 0.9860 0.9860 0.9860 0.9860
3205.634693 0.9860 0.9860 0.9869 0.9879 0.9880
3210.322208 0.9880 0.9880 0.9880 0.9880 0.9880
3215.009724 0.9884 0.9889 0.9890 0.9890 0.9890
3219.697240 0.9890 0.9890 0.9890 0.9898 0.9908
3224.384756 0.9910 0.9910 0.9910 0.9910 0.9910
3229.072271 0.9910 0.9910 0.9910 0.9910 0.9910
3233.759787 0.9910 0.9910 0.9910 0.9910 0.9910
3238.447303 0.9910 0.9910 0.9910 0.9910 0.9910
3243.134818 0.9910 0.9910 0.9910 0.9910 0.9910
3247.822334 0.9910 0.9910 0.9910 0.9910 0.9910
3252.509850 0.9910 0.9910 0.9910 0.9910 0.9910
3257.197366 0.9910 0.9910 0.9910 0.9910 0.9910
3261.884881 0.9910 0.9910 0.9910 0.9910 0.9910
3266.572397 0.9910 0.9910 0.9910 0.9910 0.9910
3271.259913 0.9910 0.9910 0.9910 0.9910 0.9910
3275.947428 0.9910 0.9910 0.9910 0.9902 0.9892
3280.634944 0.9890 0.9890 0.9890 0.9890 0.9890
3285.322460 0.9890 0.9890 0.9890 0.9890 0.9890
3290.009976 0.9890 0.9890 0.9890 0.9890 0.9898
3294.697491 0.9908 0.9910 0.9910 0.9910 0.9910
3299.385007 0.9910 0.9910 0.9914 0.9919 0.9920
3304.072523 0.9920 0.9920 0.9920 0.9920 0.9920
3308.760038 0.9927 0.9937 0.9940 0.9940 0.9940
3313.447554 0.9940 0.9940 0.9940 0.9940 0.9940
3318.135070 0.9940 0.9940 0.9940 0.9940 0.9940
3322.822586 0.9940 0.9940 0.9940 0.9940 0.9940
3327.510101 0.9933 0.9923 0.9920 0.9920 0.9920
3332.197617 0.9920 0.9920 0.9920 0.9920 0.9920
3336.885133 0.9916 0.9911 0.9910 0.9910 0.9910
3341.572648 0.9910 0.9903 0.9893 0.9897 0.9907
3346.260164 0.9910 0.9910 0.9910 0.9910 0.9910
3350.947680 0.9910 0.9910 0.9910 0.9910 0.9910
3355.635196 0.9910 0.9910 0.9910 0.9910 0.9910
3360.322711 0.9910 0.9910 0.9910 0.9910 0.9910
3365.010227 0.9910 0.9910 0.9910 0.9910 0.9910
3369.697743 0.9910 0.9910 0.9910 0.9910 0.9910
3374.385258 0.9910 0.9910 0.9910 0.9910 0.9910
3379.072774 0.9910 0.9910 0.9910 0.9910 0.9910
3383.760290 0.9910 0.9910 0.9910 0.9910 0.9910
3388.447806 0.9910 0.9910 0.9910 0.9910 0.9910
3393.135321 0.9910 0.9910 0.9910 0.9910 0.9910
3397.822837 0.9910 0.9910 0.9910 0.9910 0.9910
3402.510353 0.9910 0.9910 0.9910 0.9910 0.9910
3407.197868 0.9910 0.9910 0.9910 0.9910 0.9910
3411.885384 0.9910 0.9910 0.9910 0.9910 0.9910
3416.572900 0.9910 0.9910 0.9910 0.9910 0.9910
3421.260416 0.9910 0.9910 0.9910 0.9910 0.9910
3425.947931 0.9910 0.9910 0.9910 0.9910 0.9910
3430.635447 0.9910 0.9910 0.9910 0.9910 0.9910
3435.322963 0.9910 0.9910 0.9910 0.9910 0.9910
3440.010478 0.9910 0.9910 0.9910 0.9910 0.9910
3444.697994 0.9910 0.9910 0.9910 0.9910 0.9910
3449.385510 0.9910 0.9910 0.9910 0.9910 0.9910
3454.073026 0.9910 0.9910 0.9910 0.9910 0.9910
3458.760541 0.9910 0.9910 0.9910 0.9910 0.9910
3463.448057 0.9910 0.9910 0.9910 0.9910 0.9910
3468.135573 0.9910 0.9910 0.9910 0.9910 0.9910
3472.823088 0.9910 0.9913 0.9918 0.9920 0.9920
3477.510604 0.9920 0.9920 0.9920 0.9920 0.9920
3482.198120 0.9920 0.9917 0.9912 0.9910 0.9910
3486.885636 0.9910 0.9910 0.9910 0.9910 0.9910
3491.573151 0.9910 0.9910 0.9910 0.9910 0.9910
3496.260667 0.9910 0.9910 0.9913 0.9918 0.9920
3500.948183 0.9920 0.9926 0.9936 0.9940 0.9940
3505.635698 0.9940 0.9940 0.9940 0.9940 0.9940
3510.323214 0.9940 0.9940 0.9940 0.9940 0.9940
3515.010730 0.9940 0.9940 0.9940 0.9940 0.9940
3519.698246 0.9940 0.9940 0.9940 0.9940 0.9940
3524.385761 0.9940 0.9940 0.9940 0.9940 0.9940
3529.073277 0.9940 0.9940 0.9940 0.9940 0.9940
3533.760793 0.9940 0.9940 0.9940 0.9940 0.9940
3538.448308 0.9940 0.9940 0.9940 0.9940 0.9940
3543.135824 0.9940 0.9940 0.9940 0.9940 0.9940
3547.823340 0.9940 0.9940 0.9940 0.9935 0.9925
3552.510856 0.9920 0.9920 0.9917 0.9912 0.9910
3557.198371 0.9910 0.9910 0.9910 0.9910 0.9910
3561.885887 0.9910 0.9910 0.9910 0.9910 0.9910
3566.573403 0.9910 0.9910 0.9910 0.9910 0.9910
3571.260918 0.9910 0.9910 0.9905 0.9895 0.9890
3575.948434 0.9890 0.9890 0.9890 0.9887 0.9882
3580.635950 0.9880 0.9880 0.9875 0.9865 0.9860
3585.323466 0.9860 0.9860 0.9860 0.9860 0.9860
3590.010981 0.9860 0.9860 0.9860 0.9860 0.9860
3594.698497 0.9860 0.9860 0.9860 0.9860 0.9860
3599.386013 0.9860 0.9860 0.9860 0.9860 0.9860
3604.073528 0.9860 0.9860 0.9860 0.9865 0.9875
3608.761044 0.9880 0.9880 0.9880 0.9880 0.9880
3613.448560 0.9880 0.9882 0.9887 0.9890 0.9890
3618.136076 0.9890 0.9890 0.9890 0.9890 0.9890
3622.823591 0.9890 0.9895 0.9905 0.9910 0.9910
3627.511107 0.9910 0.9910 0.9910 0.9910 0.9910
3632.198623 0.9910 0.9912 0.9917 0.9920 0.9920
3636.886138 0.9920 0.9920 0.9920 0.9920 0.9920
3641.573654 0.9920 0.9920 0.9920 0.9920 0.9920
3646.261170 0.9924 0.9934 0.9940 0.9940 0.9936
3650.948686 0.9926 0.9920 0.9920 0.9918 0.9913
3655.636201 0.9906 0.9896 0.9888 0.9883 0.9880
3660.323717 0.9880 0.9880 0.9880 0.9882 0.9887
3665.011233 0.9894 0.9904 0.9912 0.9917 0.9920
3669.698748 0.9920 0.9920 0.9920 0.9924 0.9934
3674.386264 0.9940 0.9940 0.9936 0.9926 0.9920
3679.073780 0.9920 0.9914 0.9899 0.9890 0.9890
3683.761296 0.9890 0.9890 0.9894 0.9904 0.9910
3688.448811 0.9910 0.9912 0.9917 0.9924 0.9934
3693.136327 0.9946 0.9961 0.9970 0.9970 0.9970
3697.823843 0.9970 0.9972 0.9977 0.9980 0.9980
3702.511358 0.9980 0.9980 0.9980 0.9980 0.9980
3707.198874 0.9980 0.9980 0.9980 0.9974 0.9959
3711.886390 0.9950 0.9950 0.9954 0.9964 0.9970
3716.573906 0.9970 0.9966 0.9956 0.9950 0.9950
3721.261421 0.9948 0.9943 0.9936 0.9926 0.9918
3725.948937 0.9913 0.9910 0.9910 0.9910 0.9910
3730.636453 0.9910 0.9910 0.9910 0.9910 0.9906
3735.323968 0.9897 0.9890 0.9890 0.9890 0.9890
3740.011484 0.9893 0.9903 0.9912 0.9917 0.9920
3744.699000 0.9920 0.9920 0.9920 0.9920 0.9920
3749.386516 0.9918 0.9913 0.9910 0.9910 0.9910
3754.074031 0.9910 0.9910 0.9910 0.9910 0.9910
3758.761547 0.9910 0.9910 0.9907 0.9897 0.9890
3763.449063 0.9890 0.9890 0.9890 0.9890 0.9890
3768.136578 0.9888 0.9883 0.9880 0.9880 0.9880
3772.824094 0.9880 0.9880 0.9880 0.9877 0.9867
3777.511610 0.9860 0.9860 0.9859 0.9854 0.9849
3782.199126 0.9843 0.9837 0.9827 0.9820 0.9820
3786.886641 0.9829 0.9859 0.9880 0.9880 0.9881
3791.574157 0.9886 0.9890 0.9890 0.9890 0.9890
3796.261673 0.9890 0.9890 0.9890 0.9890 0.9890
3800.949188 0.9890 0.9890 0.9890 0.9890 0.9890
##END=
